Time sep (ms?), Current (A)
0.0, -3.687e-08
2.002, -4.145e-08
4.004, -3.693e-08
6.006, -3.922e-08
8.008, -3.669e-08
10.01, -3.722e-08
12.012, -3.579e-08
14.014, -3.758e-08
16.016, -3.974e-08
18.018, -3.893e-08
20.02, -3.54e-08
22.022, -3.938e-08
24.024, -3.807e-08
26.026, -3.43e-08
28.028, -3.343e-08
30.03, -3.58e-08
32.032, -3.757e-08
34.034, -3.753e-08
36.036, -3.897e-08
38.038, -3.903e-08
40.04, -3.893e-08
42.042, -3.65e-08
44.044, -4.07e-08
46.046, -3.597e-08
48.048, -3.699e-08
50.05, -4.02e-08
52.052, -4.161e-08
54.054, -3.7e-08
56.056, -3.296e-08
58.058, -3.425e-08
60.06, -3.467e-08
62.062, -3.639e-08
64.064, -3.845e-08
66.066, -3.81e-08
68.068, -3.517e-08
70.07, -3.941e-08
72.072, -3.968e-08
74.074, -4.084e-08
76.076, -3.363e-08
78.078, -3.726e-08
80.08, -3.79e-08
82.082, -4.047e-08
84.084, -3.969e-08
86.086, -3.971e-08
88.088, -3.89e-08
90.09, -3.987e-08
92.092, -4.13e-08
94.094, -4.079e-08
96.096, -3.846e-08
98.098, -3.534e-08
100.1, -3.656e-08
102.1, -3.585e-08
104.1, -3.856e-08
106.11, -3.921e-08
108.11, -3.674e-08
110.11, -3.68e-08
112.11, -3.757e-08
114.11, -3.822e-08
116.12, -3.763e-08
118.12, -3.984e-08
120.12, -3.81e-08
122.12, -3.539e-08
124.12, -3.847e-08
126.13, -3.443e-08
128.13, -3.59e-08
130.13, -3.842e-08
132.13, -3.834e-08
134.13, -3.917e-08
136.14, -4.022e-08
138.14, -4.12e-08
140.14, -3.699e-08
142.14, -3.958e-08
144.14, -3.774e-08
146.15, -3.899e-08
148.15, -3.683e-08
150.15, -3.809e-08
152.15, -3.73e-08
154.15, -3.734e-08
156.16, -3.524e-08
158.16, -3.663e-08
160.16, -3.704e-08
162.16, -3.529e-08
164.16, -3.202e-08
166.17, -3.713e-08
168.17, -3.378e-08
170.17, -3.561e-08
172.17, -3.721e-08
174.17, -4.224e-08
176.18, -3.851e-08
178.18, -3.863e-08
180.18, -4.029e-08
182.18, -4.216e-08
184.18, -3.948e-08
186.19, -3.829e-08
188.19, -3.619e-08
190.19, -3.886e-08
192.19, -3.691e-08
194.19, -3.52e-08
196.2, -3.683e-08
198.2, -3.372e-08
200.2, -3.745e-08
202.2, -3.712e-08
204.2, -3.821e-08
206.21, -3.406e-08
208.21, -3.778e-08
210.21, -3.734e-08
212.21, -3.693e-08
214.21, -3.725e-08
216.22, -3.561e-08
218.22, -3.913e-08
220.22, -4.263e-08
222.22, -3.917e-08
224.22, -4.055e-08
226.23, -3.908e-08
228.23, -3.744e-08
230.23, -3.937e-08
232.23, -3.729e-08
234.23, -3.625e-08
236.24, -3.47e-08
238.24, -3.498e-08
240.24, -3.802e-08
242.24, -3.985e-08
244.24, -3.786e-08
246.25, -4.087e-08
248.25, -4.077e-08
250.25, -3.413e-08
252.25, -4.045e-08
254.25, -3.909e-08
256.26, -4.389e-08
258.26, -4.641e-08
260.26, -4.251e-08
262.26, -3.85e-08
264.26, -4.313e-08
266.27, -4.23e-08
268.27, -3.641e-08
270.27, -4.105e-08
272.27, -3.982e-08
274.27, -4.204e-08
276.28, -4.078e-08
278.28, -4.027e-08
280.28, -3.747e-08
282.28, -3.969e-08
284.28, -4.167e-08
286.29, -3.385e-08
288.29, -3.795e-08
290.29, -4.008e-08
292.29, -3.474e-08
294.29, -3.657e-08
296.3, -3.993e-08
298.3, -3.454e-08
300.3, -3.783e-08
302.3, -4.153e-08
304.3, -4.37e-08
306.31, -3.896e-08
308.31, -3.653e-08
310.31, -3.753e-08
312.31, -3.711e-08
314.31, -3.711e-08
316.32, -3.415e-08
318.32, -3.276e-08
320.32, -3.641e-08
322.32, -3.477e-08
324.32, -3.186e-08
326.33, -3.454e-08
328.33, -3.356e-08
330.33, -3.418e-08
332.33, -3.648e-08
334.33, -3.496e-08
336.34, -3.753e-08
338.34, -3.325e-08
340.34, -3.382e-08
342.34, -3.472e-08
344.34, -3.604e-08
346.35, -3.814e-08
348.35, -4.118e-08
350.35, -3.795e-08
352.35, -3.578e-08
354.35, -3.893e-08
356.36, -3.567e-08
358.36, -3.491e-08
360.36, -3.645e-08
362.36, -3.237e-08
364.36, -3.624e-08
366.37, -3.448e-08
368.37, -3.217e-08
370.37, -3.402e-08
372.37, -3.802e-08
374.37, -3.291e-08
376.38, -3.346e-08
378.38, -3.808e-08
380.38, -3.815e-08
382.38, -3.824e-08
384.38, -3.652e-08
386.39, -3.868e-08
388.39, -3.718e-08
390.39, -3.757e-08
392.39, -3.787e-08
394.39, -3.439e-08
396.4, -3.595e-08
398.4, -3.59e-08
400.4, -3.446e-08
402.4, -3.738e-08
404.4, -3.731e-08
406.41, -3.483e-08
408.41, -3.71e-08
410.41, -4.153e-08
412.41, -4.122e-08
414.41, -3.867e-08
416.42, -4.086e-08
418.42, -4.053e-08
420.42, -4.286e-08
422.42, -3.331e-08
424.42, -3.765e-08
426.43, -3.559e-08
428.43, -4.072e-08
430.43, -4.125e-08
432.43, -4.009e-08
434.43, -3.969e-08
436.44, -4.033e-08
438.44, -4.202e-08
440.44, -3.971e-08
442.44, -3.975e-08
444.44, -3.882e-08
446.45, -3.884e-08
448.45, -3.634e-08
450.45, -3.639e-08
452.45, -3.657e-08
454.45, -3.608e-08
456.46, -3.467e-08
458.46, -3.739e-08
460.46, -3.925e-08
462.46, -3.766e-08
464.46, -4.085e-08
466.47, -4.028e-08
468.47, -4.226e-08
470.47, -3.872e-08
472.47, -3.843e-08
474.47, -3.898e-08
476.48, -3.94e-08
478.48, -3.776e-08
480.48, -3.853e-08
482.48, -3.848e-08
484.48, -3.625e-08
486.49, -3.592e-08
488.49, -3.92e-08
490.49, -3.754e-08
492.49, -3.853e-08
494.49, -3.688e-08
496.5, -3.562e-08
498.5, -3.57e-08
500.5, -3.668e-08
502.5, -3.668e-08
504.5, -3.806e-08
506.51, -4.026e-08
508.51, -3.967e-08
510.51, -4.124e-08
512.51, -4.143e-08
514.51, -3.917e-08
516.52, -4.185e-08
518.52, -4.09e-08
520.52, -4.367e-08
522.52, -3.919e-08
524.52, -3.919e-08
526.53, -3.948e-08
528.53, -4.353e-08
530.53, -4.407e-08
532.53, -4.065e-08
534.53, -3.927e-08
536.54, -4e-08
538.54, -3.815e-08
540.54, -3.993e-08
542.54, -4.122e-08
544.54, -3.987e-08
546.55, -4.028e-08
548.55, -4.177e-08
550.55, -3.719e-08
552.55, -4.22e-08
554.55, -3.777e-08
556.56, -3.964e-08
558.56, -3.954e-08
560.56, -3.642e-08
562.56, -4.138e-08
564.56, -3.784e-08
566.57, -4.613e-08
568.57, -4.174e-08
570.57, -4.303e-08
572.57, -4.14e-08
574.57, -4.217e-08
576.58, -3.718e-08
578.58, -3.791e-08
580.58, -3.889e-08
582.58, -3.649e-08
584.58, -3.742e-08
586.59, -3.903e-08
588.59, -3.941e-08
590.59, -3.535e-08
592.59, -3.931e-08
594.59, -3.741e-08
596.6, -3.86e-08
598.6, -3.914e-08
600.6, -3.76e-08
602.6, -4.243e-08
604.6, -4.111e-08
606.61, -3.852e-08
608.61, -4.024e-08
610.61, -3.981e-08
612.61, -3.891e-08
614.61, -3.766e-08
616.62, -3.631e-08
618.62, -3.859e-08
620.62, -3.424e-08
622.62, -3.565e-08
624.62, -3.401e-08
626.63, -3.292e-08
628.63, -3.759e-08
630.63, -3.726e-08
632.63, -3.795e-08
634.63, -3.592e-08
636.64, -3.738e-08
638.64, -3.571e-08
640.64, -3.59e-08
642.64, -3.606e-08
644.64, -3.758e-08
646.65, -3.692e-08
648.65, -3.981e-08
650.65, -3.626e-08
652.65, -3.852e-08
654.65, -3.809e-08
656.66, -3.428e-08
658.66, -3.742e-08
660.66, -4.018e-08
662.66, -4.017e-08
664.66, -4.207e-08
666.67, -3.775e-08
668.67, -3.95e-08
670.67, -3.506e-08
672.67, -3.781e-08
674.67, -3.712e-08
676.68, -3.786e-08
678.68, -3.818e-08
680.68, -3.912e-08
682.68, -3.788e-08
684.68, -3.829e-08
686.69, -3.698e-08
688.69, -3.709e-08
690.69, -3.499e-08
692.69, -3.76e-08
694.69, -3.677e-08
696.7, -4.04e-08
698.7, -4.215e-08
700.7, -4.022e-08
702.7, -4.247e-08
704.7, -3.748e-08
706.71, -3.664e-08
708.71, -3.496e-08
710.71, -3.773e-08
712.71, -4.002e-08
714.71, -3.632e-08
716.72, -3.863e-08
718.72, -4.279e-08
720.72, -3.7e-08
722.72, -3.529e-08
724.72, -3.709e-08
726.73, -3.634e-08
728.73, -3.565e-08
730.73, -3.894e-08
732.73, -3.662e-08
734.73, -3.646e-08
736.74, -3.847e-08
738.74, -3.92e-08
740.74, -3.809e-08
742.74, -4.046e-08
744.74, -3.755e-08
746.75, -3.655e-08
748.75, -3.931e-08
750.75, -3.748e-08
752.75, -3.64e-08
754.75, -3.532e-08
756.76, -4.112e-08
758.76, -3.899e-08
760.76, -4.031e-08
762.76, -3.661e-08
764.76, -3.896e-08
766.77, -3.587e-08
768.77, -3.536e-08
770.77, -3.95e-08
772.77, -3.674e-08
774.77, -3.913e-08
776.78, -3.823e-08
778.78, -3.791e-08
780.78, -3.471e-08
782.78, -3.597e-08
784.78, -3.548e-08
786.79, -3.401e-08
788.79, -3.667e-08
790.79, -3.365e-08
792.79, -3.768e-08
794.79, -3.962e-08
796.8, -3.739e-08
798.8, -3.427e-08
800.8, -3.797e-08
802.8, -3.711e-08
804.8, -3.628e-08
806.81, -3.933e-08
808.81, -3.98e-08
810.81, -3.775e-08
812.81, -3.672e-08
814.81, -3.726e-08
816.82, -3.99e-08
818.82, -3.722e-08
820.82, -3.581e-08
822.82, -3.561e-08
824.82, -3.794e-08
826.83, -3.823e-08
828.83, -3.711e-08
830.83, -4.058e-08
832.83, -3.814e-08
834.83, -3.96e-08
836.84, -3.46e-08
838.84, -3.758e-08
840.84, -3.36e-08
842.84, -3.905e-08
844.84, -4.214e-08
846.85, -3.742e-08
848.85, -3.918e-08
850.85, -3.825e-08
852.85, -4.066e-08
854.85, -4.016e-08
856.86, -3.643e-08
858.86, -3.998e-08
860.86, -3.994e-08
862.86, -4.019e-08
864.86, -4.078e-08
866.87, -3.846e-08
868.87, -3.858e-08
870.87, -4.002e-08
872.87, -4.186e-08
874.87, -4.131e-08
876.88, -3.858e-08
878.88, -4.272e-08
880.88, -3.93e-08
882.88, -3.867e-08
884.88, -3.87e-08
886.89, -3.882e-08
888.89, -3.6e-08
890.89, -3.597e-08
892.89, -3.565e-08
894.89, -3.937e-08
896.9, -4.126e-08
898.9, -3.961e-08
900.9, -3.947e-08
902.9, -4.471e-08
904.9, -4.358e-08
906.91, -4.313e-08
908.91, -3.816e-08
910.91, -4.062e-08
912.91, -3.84e-08
914.91, -4.077e-08
916.92, -4.199e-08
918.92, -3.733e-08
920.92, -3.913e-08
922.92, -4.012e-08
924.92, -3.773e-08
926.93, -3.816e-08
928.93, -3.853e-08
930.93, -3.771e-08
932.93, -3.943e-08
934.93, -3.62e-08
936.94, -3.627e-08
938.94, -3.696e-08
940.94, -3.481e-08
942.94, -3.769e-08
944.94, -3.703e-08
946.95, -3.463e-08
948.95, -4.125e-08
950.95, -3.874e-08
952.95, -3.803e-08
954.95, -3.746e-08
956.96, -4.069e-08
958.96, -3.588e-08
960.96, -3.74e-08
962.96, -3.631e-08
964.96, -4.072e-08
966.97, -3.388e-08
968.97, -3.667e-08
970.97, -3.852e-08
972.97, -3.8e-08
974.97, -3.838e-08
976.98, -3.564e-08
978.98, -3.589e-08
980.98, -4.081e-08
982.98, -4.012e-08
984.98, -4.109e-08
986.99, -4.074e-08
988.99, -3.794e-08
990.99, -3.837e-08
992.99, -3.56e-08
994.99, -4.124e-08
997.0, -3.912e-08
999.0, -3.904e-08
1001.0, -3.844e-08
1003.0, -3.913e-08
1005.0, -3.953e-08
1007.0, -3.778e-08
1009.0, -3.55e-08
1011.0, -3.505e-08
1013.0, -3.776e-08
1015.0, -3.709e-08
1017.0, -3.88e-08
1019.0, -3.66e-08
1021.0, -3.994e-08
1023.0, -3.988e-08
1025.0, -3.727e-08
1027.0, -3.386e-08
1029.0, -3.657e-08
1031.0, -3.956e-08
1033.0, -3.74e-08
1035.0, -3.64e-08
1037.0, -3.785e-08
1039.0, -3.74e-08
1041.0, -3.925e-08
1043.0, -3.866e-08
1045.0, -4.17e-08
1047.0, -3.96e-08
1049.0, -3.96e-08
1051.0, -3.972e-08
1053.1, -3.811e-08
1055.1, -4.074e-08
1057.1, -3.412e-08
1059.1, -3.691e-08
1061.1, -3.55e-08
1063.1, -3.768e-08
1065.1, -3.981e-08
1067.1, -3.633e-08
1069.1, -3.61e-08
1071.1, -4.051e-08
1073.1, -3.938e-08
1075.1, -3.959e-08
1077.1, -3.72e-08
1079.1, -3.663e-08
1081.1, -3.907e-08
1083.1, -3.824e-08
1085.1, -3.482e-08
1087.1, -3.803e-08
1089.1, -3.626e-08
1091.1, -3.401e-08
1093.1, -3.892e-08
1095.1, -3.963e-08
1097.1, -3.45e-08
1099.1, -4.039e-08
1101.1, -3.986e-08
1103.1, -3.668e-08
1105.1, -3.66e-08
1107.1, -3.971e-08
1109.1, -3.618e-08
1111.1, -2.135e-08
1113.1, 1.56e-08
1115.1, 1.368e-08
1117.1, 1.919e-08
1119.1, 2.269e-08
1121.1, 7.31e-09
1123.1, 2.029e-08
1125.1, 1.287e-08
1127.1, 2.003e-08
1129.1, 3.234e-08
1131.1, 1.958e-08
1133.1, 2.488e-08
1135.1, 3.013e-08
1137.1, 2.555e-08
1139.1, 2.915e-08
1141.1, 2.098e-08
1143.1, 3.217e-08
1145.1, 2.389e-08
1147.1, 1.808e-08
1149.1, 1.464e-08
1151.1, 2.889e-08
1153.2, 2.222e-08
1155.2, 2.552e-08
1157.2, 3.104e-08
1159.2, 1.711e-08
1161.2, 1.772e-08
1163.2, 3.291e-08
1165.2, 2.605e-08
1167.2, 1.886e-08
1169.2, 3.367e-08
1171.2, 2.431e-08
1173.2, 1.487e-08
1175.2, 2.782e-08
1177.2, 3.335e-08
1179.2, 3.011e-08
1181.2, 2.325e-08
1183.2, 2.379e-08
1185.2, 2.564e-08
1187.2, 3.051e-08
1189.2, 3.237e-08
1191.2, 3.886e-08
1193.2, 2.321e-08
1195.2, 1.574e-08
1197.2, 2.256e-08
1199.2, 2.184e-08
1201.2, 8.03e-09
1203.2, 2.013e-08
1205.2, 4.59e-08
1207.2, 3.7e-08
1209.2, 1.622e-08
1211.2, 2.683e-08
1213.2, 3.52e-08
1215.2, 1.498e-08
1217.2, 2.372e-08
1219.2, 3.517e-08
1221.2, 3.086e-08
1223.2, 2.725e-08
1225.2, 1.585e-08
1227.2, 1.234e-08
1229.2, 3.068e-08
1231.2, 3.572e-08
1233.2, 3.894e-08
1235.2, 1.812e-08
1237.2, 2.896e-08
1239.2, 2.69e-08
1241.2, 3.795e-08
1243.2, 3.302e-08
1245.2, 1.909e-08
1247.2, 2.402e-08
1249.2, 2.778e-08
1251.2, 2.519e-08
1253.3, 3.445e-08
1255.3, 3.159e-08
1257.3, 2.914e-08
1259.3, 4.085e-08
1261.3, 2.511e-08
1263.3, 3.07e-08
1265.3, 1.735e-08
1267.3, 2.419e-08
1269.3, 2.736e-08
1271.3, 2.488e-08
1273.3, 1.708e-08
1275.3, 2.33e-08
1277.3, 2.389e-08
1279.3, 3.249e-08
1281.3, 2.802e-08
1283.3, 4.631e-08
1285.3, 2.92e-08
1287.3, 2.512e-08
1289.3, 3.282e-08
1291.3, 4.484e-08
1293.3, 2.813e-08
1295.3, 1.306e-08
1297.3, 1.825e-08
1299.3, 3.165e-08
1301.3, 2.516e-08
1303.3, 2.765e-08
1305.3, 3.514e-08
1307.3, 2.877e-08
1309.3, 4.221e-08
1311.3, 4.098e-08
1313.3, 4.558e-08
1315.3, 3.233e-08
1317.3, 4.235e-08
1319.3, 2.891e-08
1321.3, 1.87e-08
1323.3, 4.098e-08
1325.3, 3.514e-08
1327.3, 4.518e-08
1329.3, 2.161e-08
1331.3, 2.34e-08
1333.3, 2.737e-08
1335.3, 3.475e-08
1337.3, 3.712e-08
1339.3, 4.894e-08
1341.3, 3.807e-08
1343.3, 2.725e-08
1345.3, 3.268e-08
1347.3, 3.424e-08
1349.3, 4.823e-08
1351.3, 3.094e-08
1353.4, 4.337e-08
1355.4, 3.123e-08
1357.4, 2.85e-08
1359.4, 3.814e-08
1361.4, 5.042e-08
1363.4, 3.93e-08
1365.4, 4.211e-08
1367.4, 2.896e-08
1369.4, 4.173e-08
1371.4, 3.715e-08
1373.4, 3.849e-08
1375.4, 3.34e-08
1377.4, 3.083e-08
1379.4, 2.882e-08
1381.4, 3.114e-08
1383.4, 4.222e-08
1385.4, 2.877e-08
1387.4, 4.311e-08
1389.4, 4.127e-08
1391.4, 3.71e-08
1393.4, 3.001e-08
1395.4, 2.653e-08
1397.4, 3.742e-08
1399.4, 3.504e-08
1401.4, 3.052e-08
1403.4, 3.458e-08
1405.4, 3.787e-08
1407.4, 1.799e-08
1409.4, 3.949e-08
1411.4, 4.117e-08
1413.4, 4.548e-08
1415.4, 3.346e-08
1417.4, 4.951e-08
1419.4, 4.021e-08
1421.4, 5.311e-08
1423.4, 2.369e-08
1425.4, 2.213e-08
1427.4, 2.833e-08
1429.4, 3.802e-08
1431.4, 4.161e-08
1433.4, 2.32e-08
1435.4, 3.121e-08
1437.4, 2.764e-08
1439.4, 2.597e-08
1441.4, 2.717e-08
1443.4, 2.812e-08
1445.4, 4.372e-08
1447.4, 2.749e-08
1449.4, 2.296e-08
1451.4, 2.36e-08
1453.5, 2.31e-08
1455.5, 3.294e-08
1457.5, 4.162e-08
1459.5, 2.976e-08
1461.5, 3.097e-08
1463.5, 3.218e-08
1465.5, 4.17e-08
1467.5, 4.055e-08
1469.5, 3.951e-08
1471.5, 3.7e-08
1473.5, 4.17e-08
1475.5, 4.837e-08
1477.5, 3.118e-08
1479.5, 3.66e-08
1481.5, 3.099e-08
1483.5, 3.422e-08
1485.5, 3.403e-08
1487.5, 2.037e-08
1489.5, 2.371e-08
1491.5, 3.798e-08
1493.5, 3.503e-08
1495.5, 4.179e-08
1497.5, 3.842e-08
1499.5, 4.539e-08
1501.5, 2.729e-08
1503.5, 4.089e-08
1505.5, 5.043e-08
1507.5, 4.677e-08
1509.5, 3.437e-08
1511.5, 2.92e-08
1513.5, 3.113e-08
1515.5, 3.423e-08
1517.5, 3.625e-08
1519.5, 1.808e-08
1521.5, 2.963e-08
1523.5, 3.718e-08
1525.5, 4.686e-08
1527.5, 3.614e-08
1529.5, 2.002e-08
1531.5, 1.888e-08
1533.5, 3.875e-08
1535.5, 4.037e-08
1537.5, 3.063e-08
1539.5, 3.122e-08
1541.5, 3.592e-08
1543.5, 2.681e-08
1545.5, 3.314e-08
1547.5, 4.226e-08
1549.5, 3.551e-08
1551.5, 5.52e-08
1553.6, 3.999e-08
1555.6, 3.57e-08
1557.6, 2.439e-08
1559.6, 3.622e-08
1561.6, 3.794e-08
1563.6, 5.182e-08
1565.6, 3.647e-08
1567.6, 4.194e-08
1569.6, 4.316e-08
1571.6, 3.928e-08
1573.6, 3.164e-08
1575.6, 5.216e-08
1577.6, 4.73e-08
1579.6, 2.571e-08
1581.6, 3.82e-08
1583.6, 3.906e-08
1585.6, 2.724e-08
1587.6, 4.897e-08
1589.6, 6.444e-08
1591.6, 5.853e-08
1593.6, 5.122e-08
1595.6, 2.087e-08
1597.6, 2.805e-08
1599.6, 3.863e-08
1601.6, 3.862e-08
1603.6, 3.753e-08
1605.6, 3.28e-08
1607.6, 3.088e-08
1609.6, 3.738e-08
1611.6, 3.777e-08
1613.6, 3.455e-08
1615.6, 3.173e-08
1617.6, 4.469e-08
1619.6, 4.993e-08
1621.6, 3.512e-08
1623.6, 4.584e-08
1625.6, 4.787e-08
1627.6, 3.263e-08
1629.6, 3.682e-08
1631.6, 3.943e-08
1633.6, 4.52e-08
1635.6, 4.247e-08
1637.6, 3.485e-08
1639.6, 2.227e-08
1641.6, 3.269e-08
1643.6, 2.542e-08
1645.6, 1.331e-08
1647.6, 1.868e-08
1649.6, 3.401e-08
1651.6, 3.375e-08
1653.7, 2.444e-08
1655.7, 3.323e-08
1657.7, 2.655e-08
1659.7, 3.536e-08
1661.7, 6.045e-08
1663.7, 4.617e-08
1665.7, 4.223e-08
1667.7, 3.094e-08
1669.7, 5.541e-08
1671.7, 4.392e-08
1673.7, 2.76e-08
1675.7, 3.329e-08
1677.7, 5.107e-08
1679.7, 3.857e-08
1681.7, 3.705e-08
1683.7, 3.154e-08
1685.7, 3.67e-08
1687.7, 5.313e-08
1689.7, 3.29e-08
1691.7, 2.664e-08
1693.7, 2.619e-08
1695.7, 4.087e-08
1697.7, 3.829e-08
1699.7, 4.08e-08
1701.7, 3.12e-08
1703.7, 3.042e-08
1705.7, 3.618e-08
1707.7, 3.114e-08
1709.7, 3.878e-08
1711.7, 3.403e-08
1713.7, 3.45e-08
1715.7, 3.647e-08
1717.7, 3.165e-08
1719.7, 4.061e-08
1721.7, 4.166e-08
1723.7, 4.36e-08
1725.7, 3.367e-08
1727.7, 3.338e-08
1729.7, 5.021e-08
1731.7, 4.783e-08
1733.7, 4.328e-08
1735.7, 3.848e-08
1737.7, 4.815e-08
1739.7, 3.755e-08
1741.7, 3.819e-08
1743.7, 4.362e-08
1745.7, 3.495e-08
1747.7, 4.484e-08
1749.7, 3.253e-08
1751.7, 3.685e-08
1753.8, 3.934e-08
1755.8, 3.481e-08
1757.8, 5.218e-08
1759.8, 5.391e-08
1761.8, 4.165e-08
1763.8, 4.017e-08
1765.8, 3.28e-08
1767.8, 2.772e-08
1769.8, 3.379e-08
1771.8, 4.002e-08
1773.8, 3.171e-08
1775.8, 2.013e-08
1777.8, 2.692e-08
1779.8, 5.433e-08
1781.8, 2.702e-08
1783.8, 3.145e-08
1785.8, 4.14e-08
1787.8, 4.888e-08
1789.8, 4.406e-08
1791.8, 3.252e-08
1793.8, 3.71e-08
1795.8, 2.773e-08
1797.8, 5.98e-08
1799.8, 3.459e-08
1801.8, 3.816e-08
1803.8, 3.565e-08
1805.8, 3.228e-08
1807.8, 6.728e-08
1809.8, 4.835e-08
1811.8, 3.468e-08
1813.8, 4.971e-08
1815.8, 4.33e-08
1817.8, 3.409e-08
1819.8, 3.482e-08
1821.8, 4.336e-08
1823.8, 5.379e-08
1825.8, 4.695e-08
1827.8, 5.568e-08
1829.8, 4.908e-08
1831.8, 4.237e-08
1833.8, 3.527e-08
1835.8, 4.679e-08
1837.8, 4.187e-08
1839.8, 3.632e-08
1841.8, 5.338e-08
1843.8, 4.063e-08
1845.8, 4.076e-08
1847.8, 5.113e-08
1849.8, 3.24e-08
1851.8, 4.031e-08
1853.9, 4.478e-08
1855.9, 4.006e-08
1857.9, 2.703e-08
1859.9, 4.668e-08
1861.9, 2.919e-08
1863.9, 3.253e-08
1865.9, 4.275e-08
1867.9, 3.983e-08
1869.9, 3.393e-08
1871.9, 5.794e-08
1873.9, 5.055e-08
1875.9, 5.884e-08
1877.9, 5.672e-08
1879.9, 4.873e-08
1881.9, 2.918e-08
1883.9, 3.888e-08
1885.9, 5.288e-08
1887.9, 5.603e-08
1889.9, 4.839e-08
1891.9, 4.026e-08
1893.9, 4.099e-08
1895.9, 4.352e-08
1897.9, 4.661e-08
1899.9, 4.229e-08
1901.9, 4.184e-08
1903.9, 3.558e-08
1905.9, 4.489e-08
1907.9, 4.576e-08
1909.9, 4.104e-08
1911.9, 4.65e-08
1913.9, 5.357e-08
1915.9, 3.75e-08
1917.9, 4.675e-08
1919.9, 3.266e-08
1921.9, 5.885e-08
1923.9, 4.303e-08
1925.9, 3.881e-08
1927.9, 4.272e-08
1929.9, 3.987e-08
1931.9, 4.653e-08
1933.9, 3.853e-08
1935.9, 4.668e-08
1937.9, 3.652e-08
1939.9, 2.635e-08
1941.9, 2.985e-08
1943.9, 4.872e-08
1945.9, 4.948e-08
1947.9, 4.4e-08
1949.9, 6.027e-08
1951.9, 3.991e-08
1954.0, 5.166e-08
1956.0, 3.514e-08
1958.0, 5.329e-08
1960.0, 4.311e-08
1962.0, 4.035e-08
1964.0, 4.059e-08
1966.0, 3.738e-08
1968.0, 2.36e-08
1970.0, 3.565e-08
1972.0, 4.462e-08
1974.0, 4.31e-08
1976.0, 2.294e-08
1978.0, 3.859e-08
1980.0, 3.303e-08
1982.0, 5.263e-08
1984.0, 4.836e-08
1986.0, 4.038e-08
1988.0, 3.631e-08
1990.0, 2.731e-08
1992.0, 5.696e-08
1994.0, 3.938e-08
1996.0, 3.954e-08
1998.0, 4.334e-08
2000.0, 5.908e-08
2002.0, 3.885e-08
2004.0, 4.762e-08
2006.0, 2.654e-08
2008.0, 2.691e-08
2010.0, 4.661e-08
2012.0, 5.221e-08
2014.0, 4.298e-08
2016.0, 4.918e-08
2018.0, 3.758e-08
2020.0, 2.717e-08
2022.0, 4.783e-08
2024.0, 3.224e-08
2026.0, 2.982e-08
2028.0, 4.6e-08
2030.0, 3.552e-08
2032.0, 3.415e-08
2034.0, 4.451e-08
2036.0, 4.822e-08
2038.0, 3.211e-08
2040.0, 3.852e-08
2042.0, 4.308e-08
2044.0, 4.717e-08
2046.0, 3.726e-08
2048.0, 3.522e-08
2050.0, 3.281e-08
2052.0, 3.724e-08
2054.1, 4.828e-08
2056.1, 5.148e-08
2058.1, 5.879e-08
2060.1, 3.636e-08
2062.1, 5.779e-08
2064.1, 3.356e-08
2066.1, 5.038e-08
2068.1, 5.114e-08
2070.1, 5.228e-08
2072.1, 4.619e-08
2074.1, 4.439e-08
2076.1, 6.84e-08
2078.1, 4.739e-08
2080.1, 5.099e-08
2082.1, 2.93e-08
2084.1, 3.781e-08
2086.1, 3.168e-08
2088.1, 4.639e-08
2090.1, 4.42e-08
2092.1, 5.396e-08
2094.1, 4.279e-08
2096.1, 3.173e-08
2098.1, 3.881e-08
2100.1, 4.449e-08
2102.1, 4.524e-08
2104.1, 3.093e-08
2106.1, 3.945e-08
2108.1, 3.84e-08
2110.1, 3.445e-08
2112.1, -5.49e-09
2114.1, -4.484e-08
2116.1, -4.069e-08
2118.1, -3.694e-08
2120.1, -3.654e-08
2122.1, -3.542e-08
2124.1, -3.676e-08
2126.1, -3.506e-08
2128.1, -3.628e-08
2130.1, -3.675e-08
2132.1, -3.989e-08
2134.1, -3.905e-08
2136.1, -3.989e-08
2138.1, -3.804e-08
2140.1, -3.503e-08
2142.1, -3.407e-08
2144.1, -3.763e-08
2146.1, -3.689e-08
2148.1, -3.511e-08
2150.1, -4.602e-08
2152.1, -4.483e-08
2154.2, -4.113e-08
2156.2, -4.07e-08
2158.2, -3.42e-08
2160.2, -3.743e-08
2162.2, -4.178e-08
2164.2, -3.861e-08
2166.2, -3.966e-08
2168.2, -3.78e-08
2170.2, -3.758e-08
2172.2, -4.004e-08
2174.2, -3.893e-08
2176.2, -3.882e-08
2178.2, -3.988e-08
2180.2, -3.961e-08
2182.2, -4.326e-08
2184.2, -4.42e-08
2186.2, -3.964e-08
2188.2, -4.083e-08
2190.2, -4.091e-08
2192.2, -4.208e-08
2194.2, -3.776e-08
2196.2, -3.631e-08
2198.2, -4.052e-08
2200.2, -3.721e-08
2202.2, -3.963e-08
2204.2, -3.682e-08
2206.2, -3.593e-08
2208.2, -4.091e-08
2210.2, -3.946e-08
2212.2, -3.837e-08
2214.2, -3.841e-08
2216.2, -3.756e-08
2218.2, -3.591e-08
2220.2, -4.156e-08
2222.2, -3.96e-08
2224.2, -4.161e-08
2226.2, -3.814e-08
2228.2, -3.247e-08
2230.2, -3.697e-08
2232.2, -3.807e-08
2234.2, -3.852e-08
2236.2, -3.53e-08
2238.2, -3.934e-08
2240.2, -3.868e-08
2242.2, -3.715e-08
2244.2, -3.606e-08
2246.2, -3.803e-08
2248.2, -3.638e-08
2250.2, -3.895e-08
2252.2, -3.709e-08
2254.3, -4.151e-08
2256.3, -3.848e-08
2258.3, -3.953e-08
2260.3, -4.485e-08
2262.3, -4.138e-08
2264.3, -4.422e-08
2266.3, -4.414e-08
2268.3, -3.909e-08
2270.3, -4.231e-08
2272.3, -4.246e-08
2274.3, -3.964e-08
2276.3, -4.216e-08
2278.3, -3.856e-08
2280.3, -4.111e-08
2282.3, -4.16e-08
2284.3, -3.969e-08
2286.3, -4.351e-08
2288.3, -3.969e-08
2290.3, -3.945e-08
2292.3, -3.779e-08
2294.3, -3.747e-08
2296.3, -4.021e-08
2298.3, -3.76e-08
2300.3, -3.548e-08
2302.3, -4.089e-08
2304.3, -4.001e-08
2306.3, -4.292e-08
2308.3, -3.931e-08
2310.3, -3.922e-08
2312.3, -3.925e-08
2314.3, -3.8e-08
2316.3, -3.715e-08
2318.3, -3.679e-08
2320.3, -3.887e-08
2322.3, -3.598e-08
2324.3, -4.348e-08
2326.3, -4.161e-08
2328.3, -3.645e-08
2330.3, -3.853e-08
2332.3, -3.955e-08
2334.3, -4.09e-08
2336.3, -4.135e-08
2338.3, -4.088e-08
2340.3, -3.939e-08
2342.3, -3.915e-08
2344.3, -3.831e-08
2346.3, -3.709e-08
2348.3, -3.902e-08
2350.3, -3.752e-08
2352.3, -4.082e-08
2354.4, -3.94e-08
2356.4, -3.974e-08
2358.4, -4.037e-08
2360.4, -3.969e-08
2362.4, -3.943e-08
2364.4, -3.909e-08
2366.4, -3.877e-08
2368.4, -4.124e-08
2370.4, -3.803e-08
2372.4, -4.213e-08
2374.4, -4.177e-08
2376.4, -4.527e-08
2378.4, -3.838e-08
2380.4, -3.698e-08
2382.4, -3.882e-08
2384.4, -4.164e-08
2386.4, -3.934e-08
2388.4, -3.798e-08
2390.4, -3.991e-08
2392.4, -3.942e-08
2394.4, -3.932e-08
2396.4, -3.68e-08
2398.4, -3.929e-08
2400.4, -3.96e-08
2402.4, -3.765e-08
2404.4, -4.175e-08
2406.4, -3.809e-08
2408.4, -3.844e-08
2410.4, -4.151e-08
2412.4, -4.141e-08
2414.4, -4.155e-08
2416.4, -4.354e-08
2418.4, -4.17e-08
2420.4, -4.192e-08
2422.4, -3.779e-08
2424.4, -3.977e-08
2426.4, -3.991e-08
2428.4, -3.959e-08
2430.4, -4.2e-08
2432.4, -3.882e-08
2434.4, -4.431e-08
2436.4, -4.182e-08
2438.4, -4.49e-08
2440.4, -4.374e-08
2442.4, -4.193e-08
2444.4, -4.492e-08
2446.4, -4.241e-08
2448.4, -4.02e-08
2450.4, -4.036e-08
2452.4, -4.325e-08
2454.5, -4.399e-08
2456.5, -4.357e-08
2458.5, -4.065e-08
2460.5, -4.28e-08
2462.5, -3.716e-08
2464.5, -3.75e-08
2466.5, -3.599e-08
2468.5, -3.813e-08
2470.5, -3.912e-08
2472.5, -3.682e-08
2474.5, -4.137e-08
2476.5, -4.13e-08
2478.5, -3.884e-08
2480.5, -4.212e-08
2482.5, -3.821e-08
2484.5, -3.895e-08
2486.5, -4.048e-08
2488.5, -3.996e-08
2490.5, -4.153e-08
2492.5, -4.227e-08
2494.5, -4.005e-08
2496.5, -3.745e-08
2498.5, -3.908e-08
2500.5, -3.592e-08
2502.5, -3.926e-08
2504.5, -3.823e-08
2506.5, -3.903e-08
2508.5, -4.267e-08
2510.5, -3.887e-08
2512.5, -4.093e-08
2514.5, -3.785e-08
2516.5, -4.018e-08
2518.5, -3.408e-08
2520.5, -3.638e-08
2522.5, -3.78e-08
2524.5, -3.694e-08
2526.5, -4e-08
2528.5, -3.641e-08
2530.5, -3.539e-08
2532.5, -3.415e-08
2534.5, -3.652e-08
2536.5, -3.642e-08
2538.5, -3.805e-08
2540.5, -4.088e-08
2542.5, -3.987e-08
2544.5, -3.956e-08
2546.5, -4.371e-08
2548.5, -3.758e-08
2550.5, -3.848e-08
2552.5, -4.023e-08
2554.6, -3.824e-08
2556.6, -4.225e-08
2558.6, -3.495e-08
2560.6, -3.829e-08
2562.6, -3.711e-08
2564.6, -3.765e-08
2566.6, -3.701e-08
2568.6, -3.666e-08
2570.6, -3.903e-08
2572.6, -3.881e-08
2574.6, -3.928e-08
2576.6, -4.051e-08
2578.6, -4.081e-08
2580.6, -3.553e-08
2582.6, -4.306e-08
2584.6, -4.148e-08
2586.6, -4.223e-08
2588.6, -4.184e-08
2590.6, -3.941e-08
2592.6, -3.72e-08
2594.6, -4.018e-08
2596.6, -3.716e-08
2598.6, -3.531e-08
2600.6, -3.655e-08
2602.6, -3.706e-08
2604.6, -4.137e-08
2606.6, -3.731e-08
2608.6, -3.792e-08
2610.6, -4.038e-08
2612.6, -3.336e-08
2614.6, -3.492e-08
2616.6, -3.323e-08
2618.6, -3.372e-08
2620.6, -3.562e-08
2622.6, -4.074e-08
2624.6, -3.7e-08
2626.6, -3.735e-08
2628.6, -3.544e-08
2630.6, -3.665e-08
2632.6, -3.562e-08
2634.6, -3.442e-08
2636.6, -3.857e-08
2638.6, -4.238e-08
2640.6, -3.873e-08
2642.6, -3.758e-08
2644.6, -3.803e-08
2646.6, -3.973e-08
2648.6, -3.797e-08
2650.6, -3.483e-08
2652.6, -3.94e-08
2654.7, -3.681e-08
2656.7, -3.755e-08
2658.7, -3.524e-08
2660.7, -3.788e-08
2662.7, -3.821e-08
2664.7, -3.918e-08
2666.7, -3.881e-08
2668.7, -3.845e-08
2670.7, -3.418e-08
2672.7, -3.836e-08
2674.7, -4.071e-08
2676.7, -4.034e-08
2678.7, -3.603e-08
2680.7, -3.904e-08
2682.7, -3.992e-08
2684.7, -3.689e-08
2686.7, -3.816e-08
2688.7, -3.653e-08
2690.7, -3.574e-08
2692.7, -3.757e-08
2694.7, -3.601e-08
2696.7, -3.944e-08
2698.7, -3.476e-08
2700.7, -3.492e-08
2702.7, -3.386e-08
2704.7, -3.861e-08
2706.7, -4.232e-08
2708.7, -3.596e-08
2710.7, -3.581e-08
2712.7, -3.364e-08
2714.7, -3.757e-08
2716.7, -3.708e-08
2718.7, -3.55e-08
2720.7, -3.468e-08
2722.7, -3.44e-08
2724.7, -3.58e-08
2726.7, -3.583e-08
2728.7, -3.379e-08
2730.7, -3.537e-08
2732.7, -3.44e-08
2734.7, -3.257e-08
2736.7, -3.697e-08
2738.7, -3.687e-08
2740.7, -3.454e-08
2742.7, -3.27e-08
2744.7, -3.655e-08
2746.7, -3.483e-08
2748.7, -3.369e-08
2750.7, -3.071e-08
2752.7, -3.178e-08
2754.8, -3.236e-08
2756.8, -3.332e-08
2758.8, -3.538e-08
2760.8, -3.493e-08
2762.8, -3.826e-08
2764.8, -3.79e-08
2766.8, -3.729e-08
2768.8, -3.331e-08
2770.8, -3.52e-08
2772.8, -3.353e-08
2774.8, -3.605e-08
2776.8, -3.901e-08
2778.8, -3.822e-08
2780.8, -3.415e-08
2782.8, -3.634e-08
2784.8, -3.641e-08
2786.8, -3.814e-08
2788.8, -3.58e-08
2790.8, -3.751e-08
2792.8, -3.545e-08
2794.8, -3.686e-08
2796.8, -3.604e-08
2798.8, -3.444e-08
2800.8, -3.586e-08
2802.8, -3.478e-08
2804.8, -3.758e-08
2806.8, -3.673e-08
2808.8, -3.504e-08
2810.8, -3.479e-08
2812.8, -3.426e-08
2814.8, -3.911e-08
2816.8, -4.199e-08
2818.8, -3.544e-08
2820.8, -3.812e-08
2822.8, -3.573e-08
2824.8, -3.881e-08
2826.8, -3.686e-08
2828.8, -3.622e-08
2830.8, -3.824e-08
2832.8, -3.835e-08
2834.8, -3.7e-08
2836.8, -3.81e-08
2838.8, -3.822e-08
2840.8, -3.915e-08
2842.8, -3.813e-08
2844.8, -4.098e-08
2846.8, -4.404e-08
2848.8, -3.613e-08
2850.8, -3.873e-08
2852.8, -3.756e-08
2854.9, -4.021e-08
2856.9, -3.836e-08
2858.9, -3.626e-08
2860.9, -3.564e-08
2862.9, -3.828e-08
2864.9, -3.151e-08
2866.9, -3.572e-08
2868.9, -3.579e-08
2870.9, -3.702e-08
2872.9, -3.483e-08
2874.9, -3.388e-08
2876.9, -3.586e-08
2878.9, -3.59e-08
2880.9, -3.76e-08
2882.9, -3.647e-08
2884.9, -3.864e-08
2886.9, -3.643e-08
2888.9, -3.836e-08
2890.9, -3.658e-08
2892.9, -3.67e-08
2894.9, -3.831e-08
2896.9, -3.675e-08
2898.9, -3.432e-08
2900.9, -3.605e-08
2902.9, -3.434e-08
2904.9, -3.637e-08
2906.9, -4.265e-08
2908.9, -4.007e-08
2910.9, -3.955e-08
2912.9, -4.194e-08
2914.9, -4.19e-08
2916.9, -3.763e-08
2918.9, -4.123e-08
2920.9, -3.856e-08
2922.9, -3.714e-08
2924.9, -3.711e-08
2926.9, -4.141e-08
2928.9, -4.071e-08
2930.9, -3.907e-08
2932.9, -4.149e-08
2934.9, -4.02e-08
2936.9, -3.711e-08
2938.9, -3.986e-08
2940.9, -4.059e-08
2942.9, -3.845e-08
2944.9, -3.935e-08
2946.9, -4.236e-08
2948.9, -3.949e-08
2950.9, -4.072e-08
2952.9, -4.12e-08
2955.0, -4.118e-08
2957.0, -4.243e-08
2959.0, -3.76e-08
2961.0, -3.709e-08
2963.0, -4.175e-08
2965.0, -3.947e-08
2967.0, -4.316e-08
2969.0, -4.113e-08
2971.0, -3.871e-08
2973.0, -4.055e-08
2975.0, -4.087e-08
2977.0, -4.059e-08
2979.0, -4.261e-08
2981.0, -4.32e-08
2983.0, -4.208e-08
2985.0, -4.46e-08
2987.0, -4.622e-08
2989.0, -4.478e-08
2991.0, -3.947e-08
2993.0, -4.467e-08
2995.0, -4.217e-08
2997.0, -3.954e-08
2999.0, -4.203e-08
3001.0, -4.468e-08
3003.0, -4.429e-08
3005.0, -4.21e-08
3007.0, -4.498e-08
3009.0, -4.339e-08
3011.0, -4.225e-08
3013.0, -4.265e-08
3015.0, -3.879e-08
3017.0, -4.12e-08
3019.0, -4.605e-08
3021.0, -4.418e-08
3023.0, -4.631e-08
3025.0, -4.217e-08
3027.0, -4.569e-08
3029.0, -4.058e-08
3031.0, -4.395e-08
3033.0, -4.222e-08
3035.0, -4.56e-08
3037.0, -4.246e-08
3039.0, -4.282e-08
3041.0, -4.099e-08
3043.0, -4.075e-08
3045.0, -4.277e-08
3047.0, -4.753e-08
3049.0, -4.65e-08
3051.0, -4.38e-08
3053.0, -4.513e-08
3055.1, -4.348e-08
3057.1, -4.165e-08
3059.1, -4.198e-08
3061.1, -3.994e-08
3063.1, -3.939e-08
3065.1, -3.916e-08
3067.1, -3.831e-08
3069.1, -3.908e-08
3071.1, -3.841e-08
3073.1, -4.069e-08
3075.1, -3.92e-08
3077.1, -4.269e-08
3079.1, -3.893e-08
3081.1, -3.913e-08
3083.1, -4.159e-08
3085.1, -3.838e-08
3087.1, -3.765e-08
3089.1, -3.867e-08
3091.1, -3.999e-08
3093.1, -4.163e-08
3095.1, -3.88e-08
3097.1, -3.548e-08
3099.1, -3.414e-08
3101.1, -3.53e-08
3103.1, -3.878e-08
3105.1, -3.767e-08
3107.1, -4.033e-08
3109.1, -3.752e-08
3111.1, -3.91e-08
3113.1, -3.829e-08
3115.1, -3.998e-08
3117.1, -3.72e-08
3119.1, -4.095e-08
3121.1, -4.131e-08
3123.1, -3.959e-08
3125.1, -4.082e-08
3127.1, -3.784e-08
3129.1, -3.955e-08
3131.1, -3.811e-08
3133.1, -3.714e-08
3135.1, -4.106e-08
3137.1, -3.879e-08
3139.1, -3.813e-08
3141.1, -3.605e-08
3143.1, -3.573e-08
3145.1, -3.807e-08
3147.1, -4.006e-08
3149.1, -3.667e-08
3151.1, -3.232e-08
3153.1, -3.07e-08
3155.2, -3.612e-08
3157.2, -3.354e-08
3159.2, -3.548e-08
3161.2, -3.454e-08
3163.2, -3.978e-08
3165.2, -3.764e-08
3167.2, -3.76e-08
3169.2, -3.432e-08
3171.2, -3.62e-08
3173.2, -3.664e-08
3175.2, -3.701e-08
3177.2, -3.891e-08
3179.2, -3.953e-08
3181.2, -4.095e-08
3183.2, -3.774e-08
3185.2, -3.484e-08
3187.2, -3.476e-08
3189.2, -3.473e-08
3191.2, -3.656e-08
3193.2, -3.875e-08
3195.2, -3.651e-08
3197.2, -3.351e-08
3199.2, -3.547e-08
3201.2, -3.643e-08
3203.2, -3.7e-08
3205.2, -3.725e-08
3207.2, -3.159e-08
3209.2, -3.022e-08
3211.2, 8.23e-09
3213.2, 2.176e-08
3215.2, 3.242e-08
3217.2, 2.196e-08
3219.2, 3.549e-08
3221.2, 2.082e-08
3223.2, 2.275e-08
3225.2, 2.523e-08
3227.2, 3.464e-08
3229.2, 2.807e-08
3231.2, 3.025e-08
3233.2, 2.273e-08
3235.2, 2.628e-08
3237.2, 4.11e-08
3239.2, 5.056e-08
3241.2, 3.14e-08
3243.2, 3.32e-08
3245.2, 2.705e-08
3247.2, 2.662e-08
3249.2, 2.447e-08
3251.2, 2.527e-08
3253.2, 2.829e-08
3255.3, 2.702e-08
3257.3, 2.739e-08
3259.3, 2.878e-08
3261.3, 3.038e-08
3263.3, 5.453e-08
3265.3, 3.622e-08
3267.3, 2.046e-08
3269.3, 4.977e-08
3271.3, 2.828e-08
3273.3, 5.423e-08
3275.3, 3.848e-08
3277.3, 2.758e-08
3279.3, 2.239e-08
3281.3, 2.439e-08
3283.3, 3.828e-08
3285.3, 2.495e-08
3287.3, 3.625e-08
3289.3, 2.985e-08
3291.3, 2.497e-08
3293.3, 2.517e-08
3295.3, 2.888e-08
3297.3, 3.23e-08
3299.3, 3.38e-08
3301.3, 4.108e-08
3303.3, 2.947e-08
3305.3, 2.583e-08
3307.3, 4.481e-08
3309.3, 3.311e-08
3311.3, 3.018e-08
3313.3, 3.829e-08
3315.3, 3.177e-08
3317.3, 4.203e-08
3319.3, 3.388e-08
3321.3, 4.769e-08
3323.3, 3.46e-08
3325.3, 2.662e-08
3327.3, 2.704e-08
3329.3, 4.479e-08
3331.3, 4.964e-08
3333.3, 3.353e-08
3335.3, 2.609e-08
3337.3, 4.175e-08
3339.3, 3.496e-08
3341.3, 2.977e-08
3343.3, 4.344e-08
3345.3, 4.095e-08
3347.3, 4.151e-08
3349.3, 2.74e-08
3351.3, 3.334e-08
3353.3, 4.253e-08
3355.4, 4.27e-08
3357.4, 3.064e-08
3359.4, 4.631e-08
3361.4, 6.605e-08
3363.4, 4.268e-08
3365.4, 2.731e-08
3367.4, 2.801e-08
3369.4, 3.688e-08
3371.4, 3.597e-08
3373.4, 3.241e-08
3375.4, 5.397e-08
3377.4, 4.429e-08
3379.4, 4.022e-08
3381.4, 4.139e-08
3383.4, 4.012e-08
3385.4, 3e-08
3387.4, 2.862e-08
3389.4, 3.768e-08
3391.4, 3.547e-08
3393.4, 5.465e-08
3395.4, 2.949e-08
3397.4, 2.586e-08
3399.4, 5.702e-08
3401.4, 2.468e-08
3403.4, 2.825e-08
3405.4, 3.596e-08
3407.4, 2.447e-08
3409.4, 2.909e-08
3411.4, 2.648e-08
3413.4, 1.156e-08
3415.4, 3.931e-08
3417.4, 5.358e-08
3419.4, 3.005e-08
3421.4, 3.496e-08
3423.4, 2.912e-08
3425.4, 3.579e-08
3427.4, 2.399e-08
3429.4, 3.549e-08
3431.4, 1.864e-08
3433.4, 4.938e-08
3435.4, 2.811e-08
3437.4, 3.45e-08
3439.4, 2.46e-08
3441.4, 4.559e-08
3443.4, 3.008e-08
3445.4, 3.806e-08
3447.4, 3.788e-08
3449.4, 3.9e-08
3451.4, 3.176e-08
3453.4, 3.496e-08
3455.5, 1.516e-08
3457.5, 3.433e-08
3459.5, 4.856e-08
3461.5, 5.309e-08
3463.5, 3.38e-08
3465.5, 3.547e-08
3467.5, 3.743e-08
3469.5, 4.339e-08
3471.5, 1.548e-08
3473.5, 3.124e-08
3475.5, 3.631e-08
3477.5, 4.321e-08
3479.5, 4.076e-08
3481.5, 3.651e-08
3483.5, 4.214e-08
3485.5, 3.916e-08
3487.5, 3.981e-08
3489.5, 3.981e-08
3491.5, 2.836e-08
3493.5, 2.937e-08
3495.5, 3.509e-08
3497.5, 4.556e-08
3499.5, 3.521e-08
3501.5, 3.873e-08
3503.5, 2.508e-08
3505.5, 2.152e-08
3507.5, 3.988e-08
3509.5, 4.328e-08
3511.5, 4.276e-08
3513.5, 3.2e-08
3515.5, 3.228e-08
3517.5, 5.432e-08
3519.5, 3.442e-08
3521.5, 3.935e-08
3523.5, 2.462e-08
3525.5, 2.526e-08
3527.5, 3.57e-08
3529.5, 4.059e-08
3531.5, 4.37e-08
3533.5, 3.49e-08
3535.5, 3.842e-08
3537.5, 3.844e-08
3539.5, 4.156e-08
3541.5, 6.067e-08
3543.5, 4.71e-08
3545.5, 2.991e-08
3547.5, 4.422e-08
3549.5, 2.933e-08
3551.5, 3.89e-08
3553.5, 5.38e-08
3555.6, 3.407e-08
3557.6, 3.278e-08
3559.6, 4.833e-08
3561.6, 5.143e-08
3563.6, 5.394e-08
3565.6, 2.414e-08
3567.6, 5.033e-08
3569.6, 4.47e-08
3571.6, 4.216e-08
3573.6, 3.785e-08
3575.6, 4.037e-08
3577.6, 2.772e-08
3579.6, 4.57e-08
3581.6, 3.781e-08
3583.6, 5.657e-08
3585.6, 2.898e-08
3587.6, 4.292e-08
3589.6, 5.692e-08
3591.6, 5.649e-08
3593.6, 5.277e-08
3595.6, 5.768e-08
3597.6, 3.521e-08
3599.6, 4.614e-08
3601.6, 5.331e-08
3603.6, 3.452e-08
3605.6, 2.515e-08
3607.6, 5.586e-08
3609.6, 3.884e-08
3611.6, 4.86e-08
3613.6, 4.64e-08
3615.6, 3.87e-08
3617.6, 3.728e-08
3619.6, 3.674e-08
3621.6, 6.152e-08
3623.6, 5.675e-08
3625.6, 5.11e-08
3627.6, 4.586e-08
3629.6, 4.991e-08
3631.6, 3.248e-08
3633.6, 5.604e-08
3635.6, 5.813e-08
3637.6, 4.177e-08
3639.6, 5.172e-08
3641.6, 4.904e-08
3643.6, 4.536e-08
3645.6, 5.177e-08
3647.6, 5.31e-08
3649.6, 5.317e-08
3651.6, 4.266e-08
3653.6, 4.374e-08
3655.7, 4.845e-08
3657.7, 3.999e-08
3659.7, 2.998e-08
3661.7, 3.567e-08
3663.7, 4.277e-08
3665.7, 3.508e-08
3667.7, 4.829e-08
3669.7, 3.199e-08
3671.7, 5.214e-08
3673.7, 5.048e-08
3675.7, 2.82e-08
3677.7, 4.579e-08
3679.7, 4.572e-08
3681.7, 6.7e-08
3683.7, 3.236e-08
3685.7, 3.67e-08
3687.7, 3.815e-08
3689.7, 5.835e-08
3691.7, 3.485e-08
3693.7, 3.213e-08
3695.7, 5.301e-08
3697.7, 5.298e-08
3699.7, 3.778e-08
3701.7, 4.195e-08
3703.7, 5.297e-08
3705.7, 3.325e-08
3707.7, 4.311e-08
3709.7, 4.36e-08
3711.7, 4.711e-08
3713.7, 6.014e-08
3715.7, 2.981e-08
3717.7, 3.889e-08
3719.7, 3.829e-08
3721.7, 4.903e-08
3723.7, 5.589e-08
3725.7, 4.744e-08
3727.7, 3.498e-08
3729.7, 3.591e-08
3731.7, 4.654e-08
3733.7, 3.51e-08
3735.7, 5.44e-08
3737.7, 5.154e-08
3739.7, 4.356e-08
3741.7, 6.115e-08
3743.7, 4.701e-08
3745.7, 4.894e-08
3747.7, 6.067e-08
3749.7, 5.807e-08
3751.7, 4.671e-08
3753.7, 4.684e-08
3755.8, 2.609e-08
3757.8, 5.469e-08
3759.8, 4.217e-08
3761.8, 3.707e-08
3763.8, 4.939e-08
3765.8, 3.112e-08
3767.8, 6.221e-08
3769.8, 4.378e-08
3771.8, 5.308e-08
3773.8, 3.607e-08
3775.8, 4.445e-08
3777.8, 3.886e-08
3779.8, 3.67e-08
3781.8, 3.09e-08
3783.8, 5.2e-08
3785.8, 2.935e-08
3787.8, 3.22e-08
3789.8, 5.108e-08
3791.8, 5.681e-08
3793.8, 4.568e-08
3795.8, 4.537e-08
3797.8, 6.34e-08
3799.8, 5.333e-08
3801.8, 3.638e-08
3803.8, 4.743e-08
3805.8, 4.358e-08
3807.8, 4.626e-08
3809.8, 5.624e-08
3811.8, 4.077e-08
3813.8, 3.619e-08
3815.8, 4.45e-08
3817.8, 4.115e-08
3819.8, 5.22e-08
3821.8, 5.743e-08
3823.8, 5.025e-08
3825.8, 3.419e-08
3827.8, 5.01e-08
3829.8, 3.471e-08
3831.8, 5.425e-08
3833.8, 6.337e-08
3835.8, 6.024e-08
3837.8, 4.427e-08
3839.8, 5.748e-08
3841.8, 5.008e-08
3843.8, 4.777e-08
3845.8, 4.96e-08
3847.8, 5.611e-08
3849.8, 4.385e-08
3851.8, 6.574e-08
3853.8, 6.934e-08
3855.9, 6.359e-08
3857.9, 4.444e-08
3859.9, 3.784e-08
3861.9, 4.174e-08
3863.9, 3.978e-08
3865.9, 3.447e-08
3867.9, 4.997e-08
3869.9, 5.94e-08
3871.9, 3.956e-08
3873.9, 5.143e-08
3875.9, 3.656e-08
3877.9, 5.054e-08
3879.9, 4.705e-08
3881.9, 3.241e-08
3883.9, 4.456e-08
3885.9, 3.962e-08
3887.9, 4.363e-08
3889.9, 5.307e-08
3891.9, 4.688e-08
3893.9, 4.521e-08
3895.9, 3.068e-08
3897.9, 3.332e-08
3899.9, 4.008e-08
3901.9, 4.236e-08
3903.9, 4.375e-08
3905.9, 5.181e-08
3907.9, 3.841e-08
3909.9, 3.376e-08
3911.9, 3.794e-08
3913.9, 4.341e-08
3915.9, 4.187e-08
3917.9, 4.823e-08
3919.9, 2.69e-08
3921.9, 4.038e-08
3923.9, 4.699e-08
3925.9, 4.18e-08
3927.9, 2.998e-08
3929.9, 4.504e-08
3931.9, 4.849e-08
3933.9, 4.624e-08
3935.9, 3.623e-08
3937.9, 6.604e-08
3939.9, 6.766e-08
3941.9, 4.718e-08
3943.9, 4.48e-08
3945.9, 5.002e-08
3947.9, 3.695e-08
3949.9, 4.609e-08
3951.9, 4.316e-08
3953.9, 4.032e-08
3956.0, 3.779e-08
3958.0, 3.392e-08
3960.0, 6.588e-08
3962.0, 5.625e-08
3964.0, 2.856e-08
3966.0, 4.812e-08
3968.0, 4.072e-08
3970.0, 4.45e-08
3972.0, 3.142e-08
3974.0, 6.041e-08
3976.0, 4.787e-08
3978.0, 5.467e-08
3980.0, 6.17e-08
3982.0, 4.539e-08
3984.0, 5.133e-08
3986.0, 5.437e-08
3988.0, 6.199e-08
3990.0, 3.739e-08
3992.0, 4.078e-08
3994.0, 4.655e-08
3996.0, 3.647e-08
3998.0, 4.717e-08
4000.0, 3.522e-08
4002.0, 6.275e-08
4004.0, 4.364e-08
4006.0, 4.309e-08
4008.0, 4.418e-08
4010.0, 3.47e-08
4012.0, 3.55e-08
4014.0, 5.125e-08
4016.0, 4.497e-08
4018.0, 4.073e-08
4020.0, 4.251e-08
4022.0, 4.543e-08
4024.0, 4.465e-08
4026.0, 4.375e-08
4028.0, 5.099e-08
4030.0, 3.701e-08
4032.0, 5.006e-08
4034.0, 3.645e-08
4036.0, 4.856e-08
4038.0, 4.804e-08
4040.0, 5.407e-08
4042.0, 3.679e-08
4044.0, 5.071e-08
4046.0, 3.695e-08
4048.0, 5.209e-08
4050.0, 4.937e-08
4052.0, 4.707e-08
4054.0, 4.384e-08
4056.1, 4.523e-08
4058.1, 2.875e-08
4060.1, 4.923e-08
4062.1, 5.505e-08
4064.1, 4.577e-08
4066.1, 5.765e-08
4068.1, 3.988e-08
4070.1, 7.473e-08
4072.1, 5.236e-08
4074.1, 3.793e-08
4076.1, 4.476e-08
4078.1, 4.503e-08
4080.1, 6.272e-08
4082.1, 3.896e-08
4084.1, 4.968e-08
4086.1, 4.681e-08
4088.1, 5.418e-08
4090.1, 4.263e-08
4092.1, 5.473e-08
4094.1, 4.131e-08
4096.1, 3.699e-08
4098.1, 6.751e-08
4100.1, 4.177e-08
4102.1, 7.236e-08
4104.1, 5.161e-08
4106.1, 2.939e-08
4108.1, 6.226e-08
4110.1, 3.953e-08
4112.1, 5.077e-08
4114.1, 5.538e-08
4116.1, 3.879e-08
4118.1, 5.615e-08
4120.1, 5.069e-08
4122.1, 4.511e-08
4124.1, 4.318e-08
4126.1, 5.516e-08
4128.1, 2.774e-08
4130.1, 6.13e-08
4132.1, 4.988e-08
4134.1, 6.449e-08
4136.1, 3.801e-08
4138.1, 5.055e-08
4140.1, 2.411e-08
4142.1, 4.642e-08
4144.1, 3.693e-08
4146.1, 4.235e-08
4148.1, 5.251e-08
4150.1, 4.107e-08
4152.1, 6.219e-08
4154.1, 6.113e-08
4156.2, 5.184e-08
4158.2, 3.437e-08
4160.2, 4.093e-08
4162.2, 4.75e-08
4164.2, 3.722e-08
4166.2, 4.993e-08
4168.2, 4.285e-08
4170.2, 4.813e-08
4172.2, 5.021e-08
4174.2, 4.41e-08
4176.2, 2.827e-08
4178.2, 4.898e-08
4180.2, 4.222e-08
4182.2, 3.78e-08
4184.2, 4.133e-08
4186.2, 3.963e-08
4188.2, 3.237e-08
4190.2, 5.92e-08
4192.2, 3.706e-08
4194.2, 6.141e-08
4196.2, 3.607e-08
4198.2, 3.785e-08
4200.2, 4.595e-08
4202.2, 4.334e-08
4204.2, 4.326e-08
4206.2, 4.945e-08
4208.2, 3.508e-08
4210.2, 4.356e-08
4212.2, 1.101e-08
4214.2, -3.195e-08
4216.2, -3.324e-08
4218.2, -3.253e-08
4220.2, -3.403e-08
4222.2, -3.506e-08
4224.2, -3.962e-08
4226.2, -3.442e-08
4228.2, -3.647e-08
4230.2, -3.538e-08
4232.2, -3.878e-08
4234.2, -3.626e-08
4236.2, -3.809e-08
4238.2, -3.704e-08
4240.2, -3.5e-08
4242.2, -3.386e-08
4244.2, -3.889e-08
4246.2, -3.847e-08
4248.2, -3.575e-08
4250.2, -3.446e-08
4252.2, -3.477e-08
4254.2, -3.599e-08
4256.3, -3.867e-08
4258.3, -3.73e-08
4260.3, -3.695e-08
4262.3, -3.523e-08
4264.3, -3.619e-08
4266.3, -3.344e-08
4268.3, -3.56e-08
4270.3, -3.721e-08
4272.3, -3.701e-08
4274.3, -3.634e-08
4276.3, -3.657e-08
4278.3, -3.53e-08
4280.3, -3.578e-08
4282.3, -3.4e-08
4284.3, -3.455e-08
4286.3, -3.571e-08
4288.3, -3.435e-08
4290.3, -3.661e-08
4292.3, -3.637e-08
4294.3, -3.512e-08
4296.3, -3.402e-08
4298.3, -3.635e-08
4300.3, -3.545e-08
4302.3, -3.658e-08
4304.3, -3.658e-08
4306.3, -3.931e-08
4308.3, -3.753e-08
4310.3, -3.931e-08
4312.3, -3.942e-08
4314.3, -3.761e-08
4316.3, -3.749e-08
4318.3, -3.845e-08
4320.3, -3.343e-08
4322.3, -3.395e-08
4324.3, -3.637e-08
4326.3, -3.576e-08
4328.3, -3.338e-08
4330.3, -2.874e-08
4332.3, -3.109e-08
4334.3, -3.24e-08
4336.3, -3.327e-08
4338.3, -3.55e-08
4340.3, -3.551e-08
4342.3, -3.28e-08
4344.3, -3.287e-08
4346.3, -3.526e-08
4348.3, -3.423e-08
4350.3, -3.497e-08
4352.3, -3.523e-08
4354.3, -3.709e-08
4356.4, -3.624e-08
4358.4, -3.373e-08
4360.4, -3.623e-08
4362.4, -3.308e-08
4364.4, -3.038e-08
4366.4, -3.555e-08
4368.4, -3.441e-08
4370.4, -3.152e-08
4372.4, -3.251e-08
4374.4, -3.416e-08
4376.4, -2.891e-08
4378.4, -3.403e-08
4380.4, -3.323e-08
4382.4, -3.212e-08
4384.4, -3.495e-08
4386.4, -3.635e-08
4388.4, -3.418e-08
4390.4, -3.617e-08
4392.4, -3.216e-08
4394.4, -3.455e-08
4396.4, -3.373e-08
4398.4, -3.529e-08
4400.4, -3.425e-08
4402.4, -3.709e-08
4404.4, -3.659e-08
4406.4, -3.236e-08
4408.4, -3.22e-08
4410.4, -3.399e-08
4412.4, -3.173e-08
4414.4, -3.408e-08
4416.4, -3.197e-08
4418.4, -3.482e-08
4420.4, -3.209e-08
4422.4, -3.16e-08
4424.4, -3.58e-08
4426.4, -3.172e-08
4428.4, -3.316e-08
4430.4, -3.136e-08
4432.4, -3.617e-08
4434.4, -3.39e-08
4436.4, -3.525e-08
4438.4, -3.501e-08
4440.4, -3.378e-08
4442.4, -3.27e-08
4444.4, -2.832e-08
4446.4, -3.464e-08
4448.4, -3.193e-08
4450.4, -3.673e-08
4452.4, -3.455e-08
4454.4, -3.254e-08
4456.5, -3.32e-08
4458.5, -3.25e-08
4460.5, -3.357e-08
4462.5, -3.626e-08
4464.5, -3.625e-08
4466.5, -3.726e-08
4468.5, -3.535e-08
4470.5, -3.717e-08
4472.5, -3.963e-08
4474.5, -3.404e-08
4476.5, -3.234e-08
4478.5, -3.42e-08
4480.5, -3.672e-08
4482.5, -3.762e-08
4484.5, -3.513e-08
4486.5, -3.911e-08
4488.5, -3.453e-08
4490.5, -3.851e-08
4492.5, -3.621e-08
4494.5, -3.489e-08
4496.5, -3.669e-08
4498.5, -3.298e-08
4500.5, -3.481e-08
4502.5, -3.666e-08
4504.5, -3.354e-08
4506.5, -3.959e-08
4508.5, -4.257e-08
4510.5, -3.802e-08
4512.5, -3.677e-08
4514.5, -3.6e-08
4516.5, -3.659e-08
4518.5, -3.627e-08
4520.5, -3.837e-08
4522.5, -3.465e-08
4524.5, -3.491e-08
4526.5, -3.364e-08
4528.5, -3.081e-08
4530.5, -3.142e-08
4532.5, -3.132e-08
4534.5, -3.316e-08
4536.5, -3.405e-08
4538.5, -3.653e-08
4540.5, -3.267e-08
4542.5, -3.363e-08
4544.5, -3.437e-08
4546.5, -3.803e-08
4548.5, -3.754e-08
4550.5, -3.621e-08
4552.5, -3.126e-08
4554.5, -3.42e-08
4556.6, -3.33e-08
4558.6, -3.202e-08
4560.6, -3.311e-08
4562.6, -3.15e-08
4564.6, -3.308e-08
4566.6, -3.373e-08
4568.6, -3.154e-08
4570.6, -3.261e-08
4572.6, -3.404e-08
4574.6, -3.126e-08
4576.6, -2.925e-08
4578.6, -3.068e-08
4580.6, -3.399e-08
4582.6, -3.203e-08
4584.6, -3.134e-08
4586.6, -3.026e-08
4588.6, -3.19e-08
4590.6, -3.081e-08
4592.6, -3.022e-08
4594.6, -3.54e-08
4596.6, -3.204e-08
4598.6, -3.22e-08
4600.6, -3.476e-08
4602.6, -3.207e-08
4604.6, -3.103e-08
4606.6, -3.42e-08
4608.6, -2.893e-08
4610.6, -3.512e-08
4612.6, -3.63e-08
4614.6, -3.476e-08
4616.6, -3.487e-08
4618.6, -3.659e-08
4620.6, -3.729e-08
4622.6, -3.784e-08
4624.6, -3.58e-08
4626.6, -3.661e-08
4628.6, -3.522e-08
4630.6, -3.597e-08
4632.6, -3.524e-08
4634.6, -3.789e-08
4636.6, -3.541e-08
4638.6, -3.472e-08
4640.6, -3.54e-08
4642.6, -3.414e-08
4644.6, -3.144e-08
4646.6, -3.554e-08
4648.6, -3.489e-08
4650.6, -3.531e-08
4652.6, -3.769e-08
4654.6, -3.131e-08
4656.7, -3.598e-08
4658.7, -3.933e-08
4660.7, -3.373e-08
4662.7, -3.614e-08
4664.7, -3.834e-08
4666.7, -3.638e-08
4668.7, -3.845e-08
4670.7, -3.669e-08
4672.7, -3.616e-08
4674.7, -3.353e-08
4676.7, -3.482e-08
4678.7, -3.569e-08
4680.7, -3.33e-08
4682.7, -3.355e-08
4684.7, -3.858e-08
4686.7, -3.572e-08
4688.7, -3.315e-08
4690.7, -3.105e-08
4692.7, -3.078e-08
4694.7, -3.286e-08
4696.7, -3.389e-08
4698.7, -3.411e-08
4700.7, -3.061e-08
4702.7, -3.465e-08
4704.7, -3.343e-08
4706.7, -3.448e-08
4708.7, -3.357e-08
4710.7, -3.513e-08
4712.7, -3.108e-08
4714.7, -3.698e-08
4716.7, -3.376e-08
4718.7, -2.978e-08
4720.7, -3.338e-08
4722.7, -3.101e-08
4724.7, -3.679e-08
4726.7, -3.563e-08
4728.7, -3.681e-08
4730.7, -3.53e-08
4732.7, -3.081e-08
4734.7, -3.396e-08
4736.7, -3.489e-08
4738.7, -3.781e-08
4740.7, -3.8e-08
4742.7, -3.793e-08
4744.7, -3.729e-08
4746.7, -3.979e-08
4748.7, -3.786e-08
4750.7, -3.936e-08
4752.7, -3.657e-08
4754.7, -3.847e-08
4756.8, -3.731e-08
4758.8, -3.826e-08
4760.8, -3.826e-08
4762.8, -3.8e-08
4764.8, -3.976e-08
4766.8, -3.668e-08
4768.8, -3.404e-08
4770.8, -3.665e-08
4772.8, -3.402e-08
4774.8, -3.551e-08
4776.8, -3.422e-08
4778.8, -3.428e-08
4780.8, -3.174e-08
4782.8, -3.043e-08
4784.8, -3.219e-08
4786.8, -3.458e-08
4788.8, -3.415e-08
4790.8, -3.441e-08
4792.8, -3.489e-08
4794.8, -3.373e-08
4796.8, -3.181e-08
4798.8, -3.409e-08
4800.8, -3.593e-08
4802.8, -3.492e-08
4804.8, -3.44e-08
4806.8, -3.413e-08
4808.8, -3.879e-08
4810.8, -3.319e-08
4812.8, -3.114e-08
4814.8, -3.238e-08
4816.8, -3.424e-08
4818.8, -3.589e-08
4820.8, -3.639e-08
4822.8, -3.791e-08
4824.8, -3.8e-08
4826.8, -3.616e-08
4828.8, -3.734e-08
4830.8, -3.895e-08
4832.8, -3.566e-08
4834.8, -4.198e-08
4836.8, -4.044e-08
4838.8, -3.791e-08
4840.8, -3.477e-08
4842.8, -3.487e-08
4844.8, -3.559e-08
4846.8, -3.863e-08
4848.8, -3.828e-08
4850.8, -3.574e-08
4852.8, -3.725e-08
4854.8, -3.585e-08
4856.9, -3.853e-08
4858.9, -3.479e-08
4860.9, -3.296e-08
4862.9, -3.582e-08
4864.9, -3.562e-08
4866.9, -3.343e-08
4868.9, -3.729e-08
4870.9, -3.247e-08
4872.9, -3.327e-08
4874.9, -3.369e-08
4876.9, -3.393e-08
4878.9, -3.997e-08
4880.9, -3.637e-08
4882.9, -3.687e-08
4884.9, -3.777e-08
4886.9, -3.809e-08
4888.9, -3.683e-08
4890.9, -3.595e-08
4892.9, -3.531e-08
4894.9, -3.493e-08
4896.9, -3.744e-08
4898.9, -3.582e-08
4900.9, -3.682e-08
4902.9, -3.76e-08
4904.9, -4.032e-08
4906.9, -3.832e-08
4908.9, -3.58e-08
4910.9, -3.542e-08
4912.9, -3.593e-08
4914.9, -3.312e-08
4916.9, -3.799e-08
4918.9, -3.752e-08
4920.9, -3.614e-08
4922.9, -3.77e-08
4924.9, -3.31e-08
4926.9, -3.819e-08
4928.9, -4.181e-08
4930.9, -3.948e-08
4932.9, -3.734e-08
4934.9, -3.785e-08
4936.9, -3.514e-08
4938.9, -3.752e-08
4940.9, -3.657e-08
4942.9, -3.55e-08
4944.9, -4.023e-08
4946.9, -3.791e-08
4948.9, -3.644e-08
4950.9, -3.945e-08
4952.9, -3.885e-08
4954.9, -3.975e-08
4957.0, -3.898e-08
4959.0, -3.719e-08
4961.0, -3.984e-08
4963.0, -4.095e-08
4965.0, -3.833e-08
4967.0, -3.802e-08
4969.0, -3.995e-08
4971.0, -3.821e-08
4973.0, -3.833e-08
4975.0, -3.654e-08
4977.0, -3.98e-08
4979.0, -3.696e-08
4981.0, -3.765e-08
4983.0, -3.752e-08
4985.0, -4.027e-08
4987.0, -3.724e-08
4989.0, -3.537e-08
4991.0, -3.724e-08
4993.0, -3.636e-08
4995.0, -3.955e-08
4997.0, -3.767e-08
4999.0, -4.153e-08
5001.0, -3.662e-08
5003.0, -3.639e-08
5005.0, -3.712e-08
5007.0, -3.84e-08
5009.0, -3.591e-08
5011.0, -3.388e-08
5013.0, -3.279e-08
5015.0, -3.542e-08
5017.0, -3.582e-08
5019.0, -3.659e-08
5021.0, -3.525e-08
5023.0, -3.266e-08
5025.0, -3.485e-08
5027.0, -3.395e-08
5029.0, -3.714e-08
5031.0, -3.778e-08
5033.0, -3.52e-08
5035.0, -3.398e-08
5037.0, -4.149e-08
5039.0, -3.629e-08
5041.0, -3.556e-08
5043.0, -3.818e-08
5045.0, -3.38e-08
5047.0, -3.543e-08
5049.0, -3.455e-08
5051.0, -3.924e-08
5053.0, -3.544e-08
5055.0, -3.307e-08
5057.1, -3.414e-08
5059.1, -3.666e-08
5061.1, -3.55e-08
5063.1, -3.657e-08
5065.1, -3.852e-08
5067.1, -3.366e-08
5069.1, -3.72e-08
5071.1, -3.544e-08
5073.1, -3.593e-08
5075.1, -3.499e-08
5077.1, -3.382e-08
5079.1, -3.581e-08
5081.1, -3.507e-08
5083.1, -3.647e-08
5085.1, -3.217e-08
5087.1, -3.651e-08
5089.1, -3.698e-08
5091.1, -3.439e-08
5093.1, -3.419e-08
5095.1, -3.114e-08
5097.1, -3.186e-08
5099.1, -2.938e-08
5101.1, -2.899e-08
5103.1, -3.26e-08
5105.1, -3.056e-08
5107.1, -3.419e-08
5109.1, -3.581e-08
5111.1, -3.184e-08
5113.1, -3.284e-08
5115.1, -3.479e-08
5117.1, -3.124e-08
5119.1, -3.232e-08
5121.1, -3.542e-08
5123.1, -3.313e-08
5125.1, -3.397e-08
5127.1, -3.655e-08
5129.1, -3.563e-08
5131.1, -3.644e-08
5133.1, -3.211e-08
5135.1, -3.273e-08
5137.1, -3.403e-08
5139.1, -3.776e-08
5141.1, -3.501e-08
5143.1, -3.706e-08
5145.1, -3.639e-08
5147.1, -3.72e-08
5149.1, -3.633e-08
5151.1, -3.507e-08
5153.1, -3.829e-08
5155.1, -3.422e-08
5157.2, -3.447e-08
5159.2, -3.69e-08
5161.2, -3.685e-08
5163.2, -3.674e-08
5165.2, -3.416e-08
5167.2, -3.371e-08
5169.2, -3.456e-08
5171.2, -3.401e-08
5173.2, -3.769e-08
5175.2, -3.801e-08
5177.2, -3.56e-08
5179.2, -3.783e-08
5181.2, -3.473e-08
5183.2, -3.599e-08
5185.2, -3.633e-08
5187.2, -3.82e-08
5189.2, -3.563e-08
5191.2, -3.232e-08
5193.2, -3.34e-08
5195.2, -3.237e-08
5197.2, -3.396e-08
5199.2, -3.386e-08
5201.2, -3.375e-08
5203.2, -4.019e-08
5205.2, -3.826e-08
5207.2, -3.685e-08
5209.2, -3.765e-08
5211.2, -3.256e-08
5213.2, -3.8e-08
5215.2, -3.59e-08
5217.2, -3.625e-08
5219.2, -3.16e-08
5221.2, -3.14e-08
5223.2, -3.049e-08
5225.2, -3.202e-08
5227.2, -3.618e-08
5229.2, -3.205e-08
5231.2, -3.52e-08
5233.2, -3.747e-08
5235.2, -3.555e-08
5237.2, -4.021e-08
5239.2, -3.715e-08
5241.2, -3.727e-08
5243.2, -3.822e-08
5245.2, -3.733e-08
5247.2, -3.534e-08
5249.2, -3.5e-08
5251.2, -3.6e-08
5253.2, -4.069e-08
5255.2, -3.705e-08
5257.3, -3.956e-08
5259.3, -3.795e-08
5261.3, -3.834e-08
5263.3, -3.486e-08
5265.3, -3.83e-08
5267.3, -3.67e-08
5269.3, -3.657e-08
5271.3, -3.475e-08
5273.3, -3.482e-08
5275.3, -3.503e-08
5277.3, -3.464e-08
5279.3, -3.721e-08
5281.3, -3.423e-08
5283.3, -3.45e-08
5285.3, -3.548e-08
5287.3, -3.389e-08
5289.3, -3.503e-08
5291.3, -3.833e-08
5293.3, -3.423e-08
5295.3, -3.556e-08
5297.3, -3.663e-08
5299.3, -3.448e-08
5301.3, 1.149e-08
5303.3, 2.844e-08
5305.3, 1.804e-08
5307.3, 2.814e-08
5309.3, 3.316e-08
5311.3, 3.636e-08
5313.3, 1.556e-08
5315.3, 4.274e-08
5317.3, 5.273e-08
5319.3, 3.024e-08
5321.3, 2.012e-08
5323.3, 4.106e-08
5325.3, 3.252e-08
5327.3, 3.047e-08
5329.3, 2.545e-08
5331.3, 3.008e-08
5333.3, 4.897e-08
5335.3, 2.315e-08
5337.3, 3.352e-08
5339.3, 3.637e-08
5341.3, 5.01e-08
5343.3, 3.677e-08
5345.3, 3.85e-08
5347.3, 1.825e-08
5349.3, 2.174e-08
5351.3, 3.189e-08
5353.3, 3.336e-08
5355.3, 4.717e-08
5357.4, 2.348e-08
5359.4, 2.732e-08
5361.4, 3.183e-08
5363.4, 3.68e-08
5365.4, 3.392e-08
5367.4, 1.581e-08
5369.4, 4.584e-08
5371.4, 3.567e-08
5373.4, 2.516e-08
5375.4, 4.843e-08
5377.4, 3.744e-08
5379.4, 3.712e-08
5381.4, 2.871e-08
5383.4, 2.89e-08
5385.4, 2.129e-08
5387.4, 3.732e-08
5389.4, 3.183e-08
5391.4, 4.791e-08
5393.4, 3.83e-08
5395.4, 2.122e-08
5397.4, 4.289e-08
5399.4, 1.442e-08
5401.4, 2.637e-08
5403.4, 5.309e-08
5405.4, 3.464e-08
5407.4, 4.202e-08
5409.4, 5.037e-08
5411.4, 3.49e-08
5413.4, 4.349e-08
5415.4, 2.936e-08
5417.4, 3.545e-08
5419.4, 4.918e-08
5421.4, 5.423e-08
5423.4, 5.487e-08
5425.4, 3.534e-08
5427.4, 3.164e-08
5429.4, 4.165e-08
5431.4, 3.361e-08
5433.4, 3.86e-08
5435.4, 5.593e-08
5437.4, 3.546e-08
5439.4, 4.586e-08
5441.4, 3.787e-08
5443.4, 3.782e-08
5445.4, 3.376e-08
5447.4, 3.087e-08
5449.4, 3.625e-08
5451.4, 5.017e-08
5453.4, 4.618e-08
5455.4, 3.121e-08
5457.5, 3.407e-08
5459.5, 3.979e-08
5461.5, 2.873e-08
5463.5, 3.557e-08
5465.5, 4.579e-08
5467.5, 4.892e-08
5469.5, 3.996e-08
5471.5, 3.289e-08
5473.5, 4.863e-08
5475.5, 4.593e-08
5477.5, 4.631e-08
5479.5, 4.914e-08
5481.5, 3.235e-08
5483.5, 4.094e-08
5485.5, 5.949e-08
5487.5, 4.745e-08
5489.5, 4.274e-08
5491.5, 3.105e-08
5493.5, 3.571e-08
5495.5, 5.501e-08
5497.5, 3.856e-08
5499.5, 3.937e-08
5501.5, 3.3e-08
5503.5, 4.658e-08
5505.5, 4.469e-08
5507.5, 3.999e-08
5509.5, 4.641e-08
5511.5, 6.63e-08
5513.5, 3.941e-08
5515.5, 6.053e-08
5517.5, 5.231e-08
5519.5, 3.551e-08
5521.5, 5.66e-08
5523.5, 3.289e-08
5525.5, 4.863e-08
5527.5, 3.379e-08
5529.5, 2.349e-08
5531.5, 4.441e-08
5533.5, 3.776e-08
5535.5, 5.669e-08
5537.5, 2.411e-08
5539.5, 4.579e-08
5541.5, 3.873e-08
5543.5, 5.797e-08
5545.5, 4.018e-08
5547.5, 4.501e-08
5549.5, 5.606e-08
5551.5, 4.044e-08
5553.5, 4.504e-08
5555.5, 3.492e-08
5557.6, 2.291e-08
5559.6, 5.009e-08
5561.6, 3.743e-08
5563.6, 3.012e-08
5565.6, 5.235e-08
5567.6, 4.053e-08
5569.6, 4.322e-08
5571.6, 6.32e-08
5573.6, 4.583e-08
5575.6, 2.606e-08
5577.6, 3.798e-08
5579.6, 4.955e-08
5581.6, 4.278e-08
5583.6, 6.175e-08
5585.6, 4.941e-08
5587.6, 5.04e-08
5589.6, 6.306e-08
5591.6, 2.608e-08
5593.6, 3.546e-08
5595.6, 3.199e-08
5597.6, 3.518e-08
5599.6, 6.258e-08
5601.6, 4.671e-08
5603.6, 4.181e-08
5605.6, 4.798e-08
5607.6, 5.086e-08
5609.6, 3.082e-08
5611.6, 3.264e-08
5613.6, 5.887e-08
5615.6, 6.014e-08
5617.6, 5.708e-08
5619.6, 5.483e-08
5621.6, 4.66e-08
5623.6, 2.779e-08
5625.6, 4.164e-08
5627.6, 5.067e-08
5629.6, 3.906e-08
5631.6, 6.681e-08
5633.6, 5.33e-08
5635.6, 5.618e-08
5637.6, 4.099e-08
5639.6, 3.437e-08
5641.6, 5.875e-08
5643.6, 2.721e-08
5645.6, 5.429e-08
5647.6, 3.488e-08
5649.6, 4.775e-08
5651.6, 5.629e-08
5653.6, 3.101e-08
5655.6, 5.622e-08
5657.7, 4.041e-08
5659.7, 5.343e-08
5661.7, 4.978e-08
5663.7, 2.986e-08
5665.7, 5.711e-08
5667.7, 4.306e-08
5669.7, 3.072e-08
5671.7, 4.012e-08
5673.7, 2.937e-08
5675.7, 4.754e-08
5677.7, 5.166e-08
5679.7, 3.874e-08
5681.7, 4.604e-08
5683.7, 3.967e-08
5685.7, 4e-08
5687.7, 4.286e-08
5689.7, 2.93e-08
5691.7, 2.875e-08
5693.7, 5.048e-08
5695.7, 3.323e-08
5697.7, 4.631e-08
5699.7, 3.308e-08
5701.7, 3.248e-08
5703.7, 4.118e-08
5705.7, 4.957e-08
5707.7, 4.629e-08
5709.7, 5.493e-08
5711.7, 5.844e-08
5713.7, 4.231e-08
5715.7, 4.553e-08
5717.7, 5.036e-08
5719.7, 3.516e-08
5721.7, 5.11e-08
5723.7, 6.22e-08
5725.7, 5.602e-08
5727.7, 4.368e-08
5729.7, 4.84e-08
5731.7, 3.355e-08
5733.7, 4.925e-08
5735.7, 5.547e-08
5737.7, 3.401e-08
5739.7, 3.42e-08
5741.7, 3.553e-08
5743.7, 2.664e-08
5745.7, 4.594e-08
5747.7, 4.267e-08
5749.7, 3.696e-08
5751.7, 4.895e-08
5753.7, 4.879e-08
5755.7, 3.13e-08
5757.8, 4.832e-08
5759.8, 3.257e-08
5761.8, 4.23e-08
5763.8, 3.62e-08
5765.8, 5.204e-08
5767.8, 5.372e-08
5769.8, 4.096e-08
5771.8, 5.085e-08
5773.8, 3.656e-08
5775.8, 5.347e-08
5777.8, 3.875e-08
5779.8, 2.689e-08
5781.8, 3.82e-08
5783.8, 4.924e-08
5785.8, 3.266e-08
5787.8, 3.608e-08
5789.8, 3.058e-08
5791.8, 3.196e-08
5793.8, 4.541e-08
5795.8, 3.508e-08
5797.8, 5.835e-08
5799.8, 3.133e-08
5801.8, 5.223e-08
5803.8, 5.017e-08
5805.8, 4.308e-08
5807.8, 3.777e-08
5809.8, 3.714e-08
5811.8, 5.711e-08
5813.8, 4.887e-08
5815.8, 3.698e-08
5817.8, 6.295e-08
5819.8, 2.973e-08
5821.8, 5.525e-08
5823.8, 5.099e-08
5825.8, 4.671e-08
5827.8, 2.829e-08
5829.8, 4.387e-08
5831.8, 4.14e-08
5833.8, 5.709e-08
5835.8, 4.284e-08
5837.8, 4.547e-08
5839.8, 2.777e-08
5841.8, 3.339e-08
5843.8, 4.293e-08
5845.8, 4.19e-08
5847.8, 4.955e-08
5849.8, 5.753e-08
5851.8, 3.88e-08
5853.8, 2.372e-08
5855.8, 6.183e-08
5857.9, 5.353e-08
5859.9, 4.265e-08
5861.9, 4.38e-08
5863.9, 3.44e-08
5865.9, 3.303e-08
5867.9, 4.696e-08
5869.9, 3.075e-08
5871.9, 4.693e-08
5873.9, 3.536e-08
5875.9, 3.029e-08
5877.9, 5.183e-08
5879.9, 5.086e-08
5881.9, 3.066e-08
5883.9, 3.624e-08
5885.9, 5.114e-08
5887.9, 5.802e-08
5889.9, 3.29e-08
5891.9, 3.937e-08
5893.9, 3.181e-08
5895.9, 6.319e-08
5897.9, 3.512e-08
5899.9, 5.892e-08
5901.9, 5.442e-08
5903.9, 3.03e-08
5905.9, 4.593e-08
5907.9, 2.343e-08
5909.9, 4.255e-08
5911.9, 3.741e-08
5913.9, 4.536e-08
5915.9, 4.699e-08
5917.9, 3.872e-08
5919.9, 3.135e-08
5921.9, 3.546e-08
5923.9, 5.559e-08
5925.9, 4.191e-08
5927.9, 5.078e-08
5929.9, 4.311e-08
5931.9, 3.371e-08
5933.9, 4.469e-08
5935.9, 3.015e-08
5937.9, 4.942e-08
5939.9, 4.816e-08
5941.9, 4.692e-08
5943.9, 4.238e-08
5945.9, 5.402e-08
5947.9, 3.042e-08
5949.9, 3.815e-08
5951.9, 3.752e-08
5953.9, 2.651e-08
5955.9, 4.01e-08
5958.0, 4.664e-08
5960.0, 3.007e-08
5962.0, 4.09e-08
5964.0, 2.773e-08
5966.0, 2.994e-08
5968.0, 4.296e-08
5970.0, 4.149e-08
5972.0, 4.543e-08
5974.0, 5.307e-08
5976.0, 3.944e-08
5978.0, 4.61e-08
5980.0, 4.291e-08
5982.0, 4.062e-08
5984.0, 4.404e-08
5986.0, 4.987e-08
5988.0, 3.977e-08
5990.0, 5.506e-08
5992.0, 5.358e-08
5994.0, 5.536e-08
5996.0, 4.311e-08
5998.0, 4.645e-08
6000.0, 4.324e-08
6002.0, 3.81e-08
6004.0, 4.605e-08
6006.0, 4.15e-08
6008.0, 4.07e-08
6010.0, 3.265e-08
6012.0, 4.455e-08
6014.0, 4.31e-08
6016.0, 3.627e-08
6018.0, 4.143e-08
6020.0, 3.062e-08
6022.0, 4.257e-08
6024.0, 5.031e-08
6026.0, 3.965e-08
6028.0, 5.082e-08
6030.0, 2.589e-08
6032.0, 5.943e-08
6034.0, 4.206e-08
6036.0, 5.736e-08
6038.0, 5.098e-08
6040.0, 2.924e-08
6042.0, 4.227e-08
6044.0, 4.171e-08
6046.0, 3.57e-08
6048.0, 3.246e-08
6050.0, 4.054e-08
6052.0, 3.228e-08
6054.0, 6.394e-08
6056.0, 3.741e-08
6058.1, 3.489e-08
6060.1, 3.311e-08
6062.1, 5e-08
6064.1, 7.527e-08
6066.1, 4.443e-08
6068.1, 1.932e-08
6070.1, 6.961e-08
6072.1, 4.443e-08
6074.1, 3.392e-08
6076.1, 2.794e-08
6078.1, 4.681e-08
6080.1, 3.5e-08
6082.1, 5.111e-08
6084.1, 3.853e-08
6086.1, 4.909e-08
6088.1, 4.282e-08
6090.1, 2.879e-08
6092.1, 3.551e-08
6094.1, 3.645e-08
6096.1, 4.665e-08
6098.1, 3.846e-08
6100.1, 4.438e-08
6102.1, 4.566e-08
6104.1, 4.982e-08
6106.1, 4.864e-08
6108.1, 3.646e-08
6110.1, 5.998e-08
6112.1, 6.207e-08
6114.1, 5.066e-08
6116.1, 3.709e-08
6118.1, 4.507e-08
6120.1, 4.627e-08
6122.1, 5.014e-08
6124.1, 3.284e-08
6126.1, 6.058e-08
6128.1, 4.856e-08
6130.1, 3.72e-08
6132.1, 3.167e-08
6134.1, 3.602e-08
6136.1, 4.559e-08
6138.1, 3.364e-08
6140.1, 5.71e-08
6142.1, 3.884e-08
6144.1, 4.395e-08
6146.1, 3.729e-08
6148.1, 3.397e-08
6150.1, 4.757e-08
6152.1, 5.929e-08
6154.1, 5.011e-08
6156.1, 4.509e-08
6158.2, 5.16e-08
6160.2, 5.274e-08
6162.2, 6.448e-08
6164.2, 5.591e-08
6166.2, 5.657e-08
6168.2, 5.327e-08
6170.2, 3.598e-08
6172.2, 4.206e-08
6174.2, 3.126e-08
6176.2, 3.596e-08
6178.2, 4.289e-08
6180.2, 6.12e-08
6182.2, 7.451e-08
6184.2, 3.04e-08
6186.2, 3.148e-08
6188.2, 4.915e-08
6190.2, 4.466e-08
6192.2, 3.843e-08
6194.2, 2.14e-08
6196.2, 3.21e-08
6198.2, 4.499e-08
6200.2, 5.016e-08
6202.2, 3.208e-08
6204.2, 4.668e-08
6206.2, 5.442e-08
6208.2, 3.959e-08
6210.2, 4.454e-08
6212.2, 3.241e-08
6214.2, 3.281e-08
6216.2, 4.038e-08
6218.2, 3.654e-08
6220.2, 5.586e-08
6222.2, 4.867e-08
6224.2, 3.227e-08
6226.2, 5.132e-08
6228.2, 4.031e-08
6230.2, 3.941e-08
6232.2, 3.283e-08
6234.2, 4.303e-08
6236.2, 3.396e-08
6238.2, 4.429e-08
6240.2, 4.335e-08
6242.2, 5.136e-08
6244.2, 2.836e-08
6246.2, 5.234e-08
6248.2, 5.53e-08
6250.2, 5.46e-08
6252.2, 5.509e-08
6254.2, 6.434e-08
6256.2, 6.257e-08
6258.3, 5.768e-08
6260.3, 5.28e-08
6262.3, 4.161e-08
6264.3, 4.291e-08
6266.3, 4.693e-08
6268.3, 5.36e-08
6270.3, 4.121e-08
6272.3, 5.369e-08
6274.3, 3.037e-08
6276.3, 3.842e-08
6278.3, 6.979e-08
6280.3, 3.311e-08
6282.3, 3.651e-08
6284.3, 5.125e-08
6286.3, 5.096e-08
6288.3, 3.91e-08
6290.3, 3.752e-08
6292.3, 4.259e-08
6294.3, 2.987e-08
6296.3, 4.359e-08
6298.3, 5.421e-08
6300.3, 4.815e-08
6302.3, -3.76e-09
6304.3, -4.272e-08
6306.3, -4.018e-08
6308.3, -3.777e-08
6310.3, -3.774e-08
6312.3, -3.631e-08
6314.3, -3.333e-08
6316.3, -3.403e-08
6318.3, -3.915e-08
6320.3, -3.877e-08
6322.3, -3.97e-08
6324.3, -3.427e-08
6326.3, -3.718e-08
6328.3, -3.633e-08
6330.3, -4.091e-08
6332.3, -3.831e-08
6334.3, -3.359e-08
6336.3, -3.644e-08
6338.3, -4.22e-08
6340.3, -4.141e-08
6342.3, -4.217e-08
6344.3, -3.579e-08
6346.3, -3.929e-08
6348.3, -3.848e-08
6350.3, -3.822e-08
6352.3, -3.875e-08
6354.3, -3.868e-08
6356.3, -3.463e-08
6358.4, -3.407e-08
6360.4, -3.654e-08
6362.4, -3.694e-08
6364.4, -3.788e-08
6366.4, -3.944e-08
6368.4, -3.596e-08
6370.4, -3.873e-08
6372.4, -3.89e-08
6374.4, -3.801e-08
6376.4, -3.779e-08
6378.4, -3.826e-08
6380.4, -3.915e-08
6382.4, -3.711e-08
6384.4, -3.526e-08
6386.4, -3.737e-08
6388.4, -3.84e-08
6390.4, -3.837e-08
6392.4, -4.039e-08
6394.4, -3.828e-08
6396.4, -3.749e-08
6398.4, -4.015e-08
6400.4, -3.703e-08
6402.4, -3.831e-08
6404.4, -3.255e-08
6406.4, -3.802e-08
6408.4, -3.84e-08
6410.4, -3.947e-08
6412.4, -4.059e-08
6414.4, -3.878e-08
6416.4, -4.196e-08
6418.4, -3.987e-08
6420.4, -3.99e-08
6422.4, -3.823e-08
6424.4, -3.822e-08
6426.4, -3.873e-08
6428.4, -3.954e-08
6430.4, -3.807e-08
6432.4, -3.693e-08
6434.4, -4.199e-08
6436.4, -4.014e-08
6438.4, -4.251e-08
6440.4, -4.211e-08
6442.4, -3.877e-08
6444.4, -4.178e-08
6446.4, -4.068e-08
6448.4, -4.418e-08
6450.4, -4.631e-08
6452.4, -4.224e-08
6454.4, -4.179e-08
6456.4, -4.545e-08
6458.5, -4.383e-08
6460.5, -4.167e-08
6462.5, -4.285e-08
6464.5, -3.973e-08
6466.5, -4.218e-08
6468.5, -4.298e-08
6470.5, -4.145e-08
6472.5, -4.173e-08
6474.5, -4.007e-08
6476.5, -3.812e-08
6478.5, -3.727e-08
6480.5, -3.977e-08
6482.5, -4.337e-08
6484.5, -3.927e-08
6486.5, -4.155e-08
6488.5, -3.977e-08
6490.5, -3.804e-08
6492.5, -3.857e-08
6494.5, -4.072e-08
6496.5, -3.759e-08
6498.5, -3.644e-08
6500.5, -4.045e-08
6502.5, -4.342e-08
6504.5, -4.244e-08
6506.5, -4.016e-08
6508.5, -4.677e-08
6510.5, -4.074e-08
6512.5, -4.39e-08
6514.5, -4.665e-08
6516.5, -4.638e-08
6518.5, -4.239e-08
6520.5, -3.91e-08
6522.5, -4.068e-08
6524.5, -3.801e-08
6526.5, -3.791e-08
6528.5, -3.973e-08
6530.5, -4.064e-08
6532.5, -4.103e-08
6534.5, -4.002e-08
6536.5, -3.82e-08
6538.5, -4.363e-08
6540.5, -4.269e-08
6542.5, -4.091e-08
6544.5, -4.016e-08
6546.5, -4.163e-08
6548.5, -3.772e-08
6550.5, -4.137e-08
6552.5, -4.261e-08
6554.5, -4.35e-08
6556.5, -4.129e-08
6558.6, -4.118e-08
6560.6, -4.228e-08
6562.6, -4.346e-08
6564.6, -4.411e-08
6566.6, -4.122e-08
6568.6, -4.214e-08
6570.6, -4.185e-08
6572.6, -4.314e-08
6574.6, -4.157e-08
6576.6, -4.009e-08
6578.6, -4.28e-08
6580.6, -4.075e-08
6582.6, -4.001e-08
6584.6, -4.058e-08
6586.6, -4.113e-08
6588.6, -4.109e-08
6590.6, -4.391e-08
6592.6, -4.248e-08
6594.6, -4.415e-08
6596.6, -4.358e-08
6598.6, -4.313e-08
6600.6, -4.257e-08
6602.6, -4.165e-08
6604.6, -3.891e-08
6606.6, -3.958e-08
6608.6, -4.627e-08
6610.6, -4.042e-08
6612.6, -4.122e-08
6614.6, -4.374e-08
6616.6, -4.16e-08
6618.6, -4.171e-08
6620.6, -3.989e-08
6622.6, -4.072e-08
6624.6, -3.888e-08
6626.6, -3.82e-08
6628.6, -4.123e-08
6630.6, -4.574e-08
6632.6, -4.288e-08
6634.6, -4.345e-08
6636.6, -4.124e-08
6638.6, -4.236e-08
6640.6, -4.238e-08
6642.6, -4.163e-08
6644.6, -4.174e-08
6646.6, -4.304e-08
6648.6, -4.213e-08
6650.6, -4.274e-08
6652.6, -4.366e-08
6654.6, -4.116e-08
6656.6, -3.855e-08
6658.7, -4.22e-08
6660.7, -4.667e-08
6662.7, -4.207e-08
6664.7, -3.903e-08
6666.7, -3.838e-08
6668.7, -4.16e-08
6670.7, -4.087e-08
6672.7, -4.046e-08
6674.7, -4.422e-08
6676.7, -4.482e-08
6678.7, -4.35e-08
6680.7, -4.5e-08
6682.7, -4.839e-08
6684.7, -4.646e-08
6686.7, -4.237e-08
6688.7, -4.408e-08
6690.7, -4.65e-08
6692.7, -4.224e-08
6694.7, -4.078e-08
6696.7, -4.282e-08
6698.7, -3.936e-08
6700.7, -4.4e-08
6702.7, -4.411e-08
6704.7, -4.161e-08
6706.7, -4.306e-08
6708.7, -4.339e-08
6710.7, -4.155e-08
6712.7, -4.394e-08
6714.7, -4.187e-08
6716.7, -4.215e-08
6718.7, -4.15e-08
6720.7, -4.477e-08
6722.7, -4.848e-08
6724.7, -4.387e-08
6726.7, -4.294e-08
6728.7, -4.32e-08
6730.7, -4.684e-08
6732.7, -4.246e-08
6734.7, -4.033e-08
6736.7, -3.901e-08
6738.7, -4.014e-08
6740.7, -4.142e-08
6742.7, -4.042e-08
6744.7, -4.177e-08
6746.7, -4.117e-08
6748.7, -4.54e-08
6750.7, -4.216e-08
6752.7, -4.44e-08
6754.7, -4.328e-08
6756.7, -4.4e-08
6758.8, -4.115e-08
6760.8, -4.094e-08
6762.8, -3.924e-08
6764.8, -3.898e-08
6766.8, -3.957e-08
6768.8, -4.241e-08
6770.8, -4.083e-08
6772.8, -4.524e-08
6774.8, -4.288e-08
6776.8, -4.199e-08
6778.8, -4.326e-08
6780.8, -4.018e-08
6782.8, -4.325e-08
6784.8, -4.295e-08
6786.8, -4.042e-08
6788.8, -4.242e-08
6790.8, -4.341e-08
6792.8, -4.346e-08
6794.8, -4.186e-08
6796.8, -4.621e-08
6798.8, -4.486e-08
6800.8, -4.348e-08
6802.8, -4.355e-08
6804.8, -3.977e-08
6806.8, -4.174e-08
6808.8, -4.366e-08
6810.8, -4.253e-08
6812.8, -3.901e-08
6814.8, -4.092e-08
6816.8, -3.969e-08
6818.8, -4.314e-08
6820.8, -4.464e-08
6822.8, -4.424e-08
6824.8, -4.335e-08
6826.8, -4.278e-08
6828.8, -4.117e-08
6830.8, -4.619e-08
6832.8, -4.396e-08
6834.8, -4.302e-08
6836.8, -4.157e-08
6838.8, -4.473e-08
6840.8, -4.606e-08
6842.8, -4.493e-08
6844.8, -4.519e-08
6846.8, -4.232e-08
6848.8, -4.589e-08
6850.8, -4.816e-08
6852.8, -4.638e-08
6854.8, -4.255e-08
6856.8, -4.069e-08
6858.9, -4.153e-08
6860.9, -4.536e-08
6862.9, -4.157e-08
6864.9, -3.775e-08
6866.9, -4.412e-08
6868.9, -4.32e-08
6870.9, -4.378e-08
6872.9, -4.168e-08
6874.9, -4.559e-08
6876.9, -4.469e-08
6878.9, -4.435e-08
6880.9, -5.058e-08
6882.9, -4.555e-08
6884.9, -4.271e-08
6886.9, -4.343e-08
6888.9, -4.478e-08
6890.9, -4.189e-08
6892.9, -4.163e-08
6894.9, -4.185e-08
6896.9, -3.998e-08
6898.9, -4.299e-08
6900.9, -4.041e-08
6902.9, -4.196e-08
6904.9, -4.057e-08
6906.9, -4.241e-08
6908.9, -4.308e-08
6910.9, -4.366e-08
6912.9, -4.332e-08
6914.9, -4.585e-08
6916.9, -4.751e-08
6918.9, -4.565e-08
6920.9, -4.29e-08
6922.9, -4.494e-08
6924.9, -4.348e-08
6926.9, -4.523e-08
6928.9, -4.282e-08
6930.9, -4.623e-08
6932.9, -4.571e-08
6934.9, -4.536e-08
6936.9, -4.452e-08
6938.9, -4.466e-08
6940.9, -4.261e-08
6942.9, -4.457e-08
6944.9, -4.393e-08
6946.9, -4.759e-08
6948.9, -4.397e-08
6950.9, -4.403e-08
6952.9, -4.09e-08
6954.9, -3.986e-08
6956.9, -4.277e-08
6959.0, -4.194e-08
6961.0, -4.326e-08
6963.0, -4.218e-08
6965.0, -4.464e-08
6967.0, -4.193e-08
6969.0, -4.168e-08
6971.0, -3.941e-08
6973.0, -3.791e-08
6975.0, -4.279e-08
6977.0, -4.322e-08
6979.0, -4.116e-08
6981.0, -4.348e-08
6983.0, -4.19e-08
6985.0, -4.622e-08
6987.0, -4.172e-08
6989.0, -3.744e-08
6991.0, -4.256e-08
6993.0, -3.987e-08
6995.0, -3.982e-08
6997.0, -4.175e-08
6999.0, -4.078e-08
7001.0, -4.238e-08
7003.0, -4.162e-08
7005.0, -4.514e-08
7007.0, -4.195e-08
7009.0, -4.155e-08
7011.0, -4.05e-08
7013.0, -3.977e-08
7015.0, -4.218e-08
7017.0, -4.215e-08
7019.0, -4.088e-08
7021.0, -4.228e-08
7023.0, -4.219e-08
7025.0, -4.204e-08
7027.0, -4.556e-08
7029.0, -4.104e-08
7031.0, -4.403e-08
7033.0, -4.4e-08
7035.0, -4.176e-08
7037.0, -4.11e-08
7039.0, -4.042e-08
7041.0, -3.808e-08
7043.0, -3.914e-08
7045.0, -3.838e-08
7047.0, -4.247e-08
7049.0, -4.07e-08
7051.0, -4.4e-08
7053.0, -4.217e-08
7055.0, -3.859e-08
7057.0, -3.715e-08
7059.1, -4.455e-08
7061.1, -4.321e-08
7063.1, -4.418e-08
7065.1, -3.965e-08
7067.1, -3.957e-08
7069.1, -4.332e-08
7071.1, -4.009e-08
7073.1, -4.159e-08
7075.1, -4.209e-08
7077.1, -4.005e-08
7079.1, -4.111e-08
7081.1, -4.352e-08
7083.1, -4.196e-08
7085.1, -4.12e-08
7087.1, -4.429e-08
7089.1, -4.67e-08
7091.1, -4.439e-08
7093.1, -4.298e-08
7095.1, -4.1e-08
7097.1, -4.273e-08
7099.1, -4.209e-08
7101.1, -4.161e-08
7103.1, -4.269e-08
7105.1, -3.799e-08
7107.1, -4.191e-08
7109.1, -4.554e-08
7111.1, -4.474e-08
7113.1, -4.806e-08
7115.1, -4.327e-08
7117.1, -4.415e-08
7119.1, -4.108e-08
7121.1, -4.272e-08
7123.1, -4.404e-08
7125.1, -4.466e-08
7127.1, -4.246e-08
7129.1, -4.17e-08
7131.1, -3.989e-08
7133.1, -4.435e-08
7135.1, -4.464e-08
7137.1, -4.629e-08
7139.1, -4.464e-08
7141.1, -4.732e-08
7143.1, -4.644e-08
7145.1, -4.752e-08
7147.1, -4.601e-08
7149.1, -4.391e-08
7151.1, -4.162e-08
7153.1, -4.233e-08
7155.1, -4.44e-08
7157.1, -4.009e-08
7159.2, -4.342e-08
7161.2, -4.346e-08
7163.2, -4.701e-08
7165.2, -4.583e-08
7167.2, -4.517e-08
7169.2, -4.281e-08
7171.2, -4.509e-08
7173.2, -4.478e-08
7175.2, -4.536e-08
7177.2, -4.704e-08
7179.2, -4.551e-08
7181.2, -4.708e-08
7183.2, -4.681e-08
7185.2, -4.36e-08
7187.2, -4.19e-08
7189.2, -4.177e-08
7191.2, -4.509e-08
7193.2, -4.141e-08
7195.2, -4.43e-08
7197.2, -3.979e-08
7199.2, -4.265e-08
7201.2, -4.362e-08
7203.2, -4.199e-08
7205.2, -4.189e-08
7207.2, -4.029e-08
7209.2, -3.947e-08
7211.2, -4.128e-08
7213.2, -4.037e-08
7215.2, -4.174e-08
7217.2, -4.176e-08
7219.2, -4.232e-08
7221.2, -4.627e-08
7223.2, -4.373e-08
7225.2, -4.371e-08
7227.2, -4.234e-08
7229.2, -4.186e-08
7231.2, -4.57e-08
7233.2, -4.192e-08
7235.2, -4.328e-08
7237.2, -4.737e-08
7239.2, -4.25e-08
7241.2, -4.63e-08
7243.2, -4.471e-08
7245.2, -4.363e-08
7247.2, -4.478e-08
7249.2, -4.563e-08
7251.2, -4.164e-08
7253.2, -4.311e-08
7255.2, -4.357e-08
7257.2, -4.373e-08
7259.3, -4.396e-08
7261.3, -4.373e-08
7263.3, -4.413e-08
7265.3, -4.746e-08
7267.3, -4.746e-08
7269.3, -4.319e-08
7271.3, -4.346e-08
7273.3, -4.437e-08
7275.3, -4.34e-08
7277.3, -4.469e-08
7279.3, -4.213e-08
7281.3, -4.59e-08
7283.3, -4.492e-08
7285.3, -4.365e-08
7287.3, -4.577e-08
7289.3, -4.805e-08
7291.3, -4.696e-08
7293.3, -4.865e-08
7295.3, -4.559e-08
7297.3, -4.56e-08
7299.3, -4.695e-08
7301.3, -4.784e-08
7303.3, -4.822e-08
7305.3, -4.417e-08
7307.3, -4.482e-08
7309.3, -4.487e-08
7311.3, -4.654e-08
7313.3, -4.436e-08
7315.3, -4.651e-08
7317.3, -4.014e-08
7319.3, -4.332e-08
7321.3, -4.829e-08
7323.3, -4.811e-08
7325.3, -4.412e-08
7327.3, -4.159e-08
7329.3, -4.606e-08
7331.3, -4.069e-08
7333.3, -4.175e-08
7335.3, -4.212e-08
7337.3, -4.035e-08
7339.3, -4.218e-08
7341.3, -4.455e-08
7343.3, -4.237e-08
7345.3, -4.434e-08
7347.3, -3.843e-08
7349.3, -3.982e-08
7351.3, -4.21e-08
7353.3, -4.46e-08
7355.3, -4.398e-08
7357.3, -4.317e-08
7359.4, -4.813e-08
7361.4, -4.613e-08
7363.4, -4.073e-08
7365.4, -4.508e-08
7367.4, -4.447e-08
7369.4, -4.603e-08
7371.4, -4.2e-08
7373.4, -4.249e-08
7375.4, -4.018e-08
7377.4, -4.25e-08
7379.4, -4.514e-08
7381.4, -4.717e-08
7383.4, -4.702e-08
7385.4, -4.709e-08
7387.4, -4.703e-08
7389.4, -4.757e-08
7391.4, -4.351e-08
7393.4, -4.202e-08
7395.4, -4.268e-08
7397.4, -4.318e-08
7399.4, 3.308e-08
7401.4, 4.43e-09
7403.4, 2.285e-08
7405.4, 2.224e-08
7407.4, 1.523e-08
7409.4, 2.511e-08
7411.4, 2.533e-08
7413.4, 7.14e-09
7415.4, 1.603e-08
7417.4, 6.93e-09
7419.4, 1.338e-08
7421.4, 1.659e-08
7423.4, 1.849e-08
7425.4, 3.283e-08
7427.4, 1.98e-08
7429.4, 3.176e-08
7431.4, 2.571e-08
7433.4, 3.326e-08
7435.4, 1.532e-08
7437.4, 1.752e-08
7439.4, 2.891e-08
7441.4, 2.378e-08
7443.4, 2.554e-08
7445.4, 1.206e-08
7447.4, 3.527e-08
7449.4, 2.222e-08
7451.4, 2.034e-08
7453.4, 1.732e-08
7455.4, 2.68e-08
7457.4, 2.132e-08
7459.5, 2.095e-08
7461.5, 2.728e-08
7463.5, 3.451e-08
7465.5, 2.412e-08
7467.5, 2.539e-08
7469.5, 2.67e-08
7471.5, 3.478e-08
7473.5, 2.536e-08
7475.5, 4.006e-08
7477.5, 2.653e-08
7479.5, 1.789e-08
7481.5, 1.609e-08
7483.5, 3.395e-08
7485.5, 3.35e-08
7487.5, 4.661e-08
7489.5, 2.781e-08
7491.5, 2.863e-08
7493.5, 3.329e-08
7495.5, 1.845e-08
7497.5, 3.111e-08
7499.5, 3.617e-08
7501.5, 5.457e-08
7503.5, 2.871e-08
7505.5, 1.612e-08
7507.5, 4.191e-08
7509.5, 2.246e-08
7511.5, 2.247e-08
7513.5, 2.014e-08
7515.5, 2.952e-08
7517.5, 4.139e-08
7519.5, 3.043e-08
7521.5, 4.003e-08
7523.5, 3.456e-08
7525.5, 5.21e-08
7527.5, 3.805e-08
7529.5, 2.505e-08
7531.5, 4.008e-08
7533.5, 2.51e-08
7535.5, 3.833e-08
7537.5, 2.849e-08
7539.5, 1.903e-08
7541.5, 3.54e-08
7543.5, 3.79e-08
7545.5, 3.76e-08
7547.5, 2.03e-08
7549.5, 2.945e-08
7551.5, 2.851e-08
7553.5, 3.336e-08
7555.5, 3.344e-08
7557.5, 2.992e-08
7559.6, 3.097e-08
7561.6, 4.063e-08
7563.6, 3.783e-08
7565.6, 4.214e-08
7567.6, 3.006e-08
7569.6, 1.817e-08
7571.6, 3.203e-08
7573.6, 4.11e-08
7575.6, 4.061e-08
7577.6, 4.298e-08
7579.6, 2.951e-08
7581.6, 4.807e-08
7583.6, 2.622e-08
7585.6, 1.677e-08
7587.6, 3.533e-08
7589.6, 3.178e-08
7591.6, 2.472e-08
7593.6, 2.736e-08
7595.6, 4.286e-08
7597.6, 1.678e-08
7599.6, 2.728e-08
7601.6, 1.405e-08
7603.6, 2.547e-08
7605.6, 2.974e-08
7607.6, 2.835e-08
7609.6, 4.601e-08
7611.6, 4.41e-08
7613.6, 2.383e-08
7615.6, 3.085e-08
7617.6, 4.935e-08
7619.6, 5.231e-08
7621.6, 2.243e-08
7623.6, 3.546e-08
7625.6, 5.034e-08
7627.6, 3.105e-08
7629.6, 2.314e-08
7631.6, 2.267e-08
7633.6, 2.298e-08
7635.6, 3.917e-08
7637.6, 3.415e-08
7639.6, 4.548e-08
7641.6, 5.587e-08
7643.6, 4.094e-08
7645.6, 2.947e-08
7647.6, 4.954e-08
7649.6, 3.855e-08
7651.6, 3.326e-08
7653.6, 2.767e-08
7655.6, 4.676e-08
7657.6, 3.706e-08
7659.7, 2.529e-08
7661.7, 4.896e-08
7663.7, 3.916e-08
7665.7, 3.417e-08
7667.7, 2.829e-08
7669.7, 4.602e-08
7671.7, 4.431e-08
7673.7, 2.825e-08
7675.7, 3.881e-08
7677.7, 4.209e-08
7679.7, 5.152e-08
7681.7, 4.392e-08
7683.7, 3.192e-08
7685.7, 3.181e-08
7687.7, 3.776e-08
7689.7, 3.583e-08
7691.7, 2.046e-08
7693.7, 3.033e-08
7695.7, 3.21e-08
7697.7, 3.948e-08
7699.7, 3.884e-08
7701.7, 2.642e-08
7703.7, 4.314e-08
7705.7, 4.586e-08
7707.7, 5.308e-08
7709.7, 2.092e-08
7711.7, 2.665e-08
7713.7, 3.424e-08
7715.7, 3.515e-08
7717.7, 4.44e-08
7719.7, 3.68e-08
7721.7, 2.904e-08
7723.7, 4.263e-08
7725.7, 4.082e-08
7727.7, 2.364e-08
7729.7, 4.834e-08
7731.7, 2.527e-08
7733.7, 4.224e-08
7735.7, 3.176e-08
7737.7, 4.108e-08
7739.7, 2.786e-08
7741.7, 3.591e-08
7743.7, 2.79e-08
7745.7, 4.91e-08
7747.7, 6.714e-08
7749.7, 4.986e-08
7751.7, 2.627e-08
7753.7, 3e-08
7755.7, 3.1e-08
7757.7, 4.383e-08
7759.8, 5.17e-08
7761.8, 2.131e-08
7763.8, 3.957e-08
7765.8, 4.208e-08
7767.8, 3.976e-08
7769.8, 2.892e-08
7771.8, 4.752e-08
7773.8, 3.819e-08
7775.8, 2.599e-08
7777.8, 3.505e-08
7779.8, 3.858e-08
7781.8, 4.942e-08
7783.8, 3.157e-08
7785.8, 5.187e-08
7787.8, 2.706e-08
7789.8, 4.61e-08
7791.8, 3.783e-08
7793.8, 4.168e-08
7795.8, 3.778e-08
7797.8, 3.064e-08
7799.8, 4.382e-08
7801.8, 3.932e-08
7803.8, 2.661e-08
7805.8, 4.528e-08
7807.8, 2.447e-08
7809.8, 4.398e-08
7811.8, 3.08e-08
7813.8, 2.501e-08
7815.8, 2.732e-08
7817.8, 3.459e-08
7819.8, 2.879e-08
7821.8, 2.882e-08
7823.8, 2.573e-08
7825.8, 4.279e-08
7827.8, 3.273e-08
7829.8, 3.619e-08
7831.8, 5.395e-08
7833.8, 4.086e-08
7835.8, 3.066e-08
7837.8, 2.409e-08
7839.8, 3.215e-08
7841.8, 4.468e-08
7843.8, 5.484e-08
7845.8, 4.594e-08
7847.8, 3.859e-08
7849.8, 6.089e-08
7851.8, 3.944e-08
7853.8, 3.889e-08
7855.8, 4.315e-08
7857.8, 2.899e-08
7859.9, 4.575e-08
7861.9, 4.482e-08
7863.9, 3.882e-08
7865.9, 2.622e-08
7867.9, 5.174e-08
7869.9, 5.539e-08
7871.9, 5.383e-08
7873.9, 2.501e-08
7875.9, 4.228e-08
7877.9, 5.251e-08
7879.9, 3.791e-08
7881.9, 5.529e-08
7883.9, 3.692e-08
7885.9, 3.791e-08
7887.9, 3.217e-08
7889.9, 5.822e-08
7891.9, 4.776e-08
7893.9, 6.664e-08
7895.9, 3.928e-08
7897.9, 3.258e-08
7899.9, 4.302e-08
7901.9, 4.361e-08
7903.9, 4.326e-08
7905.9, 4.715e-08
7907.9, 2.943e-08
7909.9, 3.763e-08
7911.9, 5.744e-08
7913.9, 3.566e-08
7915.9, 1.731e-08
7917.9, 4.349e-08
7919.9, 4.221e-08
7921.9, 3.592e-08
7923.9, 3.249e-08
7925.9, 5.131e-08
7927.9, 3.433e-08
7929.9, 4.176e-08
7931.9, 5.876e-08
7933.9, 5.452e-08
7935.9, 6.468e-08
7937.9, 5.203e-08
7939.9, 4.697e-08
7941.9, 3.529e-08
7943.9, 4.035e-08
7945.9, 4.003e-08
7947.9, 5.957e-08
7949.9, 4.265e-08
7951.9, 3.571e-08
7953.9, 3.43e-08
7955.9, 3.289e-08
7957.9, 5.312e-08
7960.0, 4.413e-08
7962.0, 3.925e-08
7964.0, 4.099e-08
7966.0, 3.645e-08
7968.0, 3.729e-08
7970.0, 4.503e-08
7972.0, 3.99e-08
7974.0, 5.825e-08
7976.0, 4.025e-08
7978.0, 6.632e-08
7980.0, 2.677e-08
7982.0, 5.179e-08
7984.0, 3.787e-08
7986.0, 4.43e-08
7988.0, 6.364e-08
7990.0, 4.515e-08
7992.0, 5.12e-08
7994.0, 4.759e-08
7996.0, 2.823e-08
7998.0, 2.805e-08
8000.0, 5.068e-08
8002.0, 5.85e-08
8004.0, 4.346e-08
8006.0, 4.098e-08
8008.0, 4.306e-08
8010.0, 4.689e-08
8012.0, 4.552e-08
8014.0, 2.14e-08
8016.0, 3.889e-08
8018.0, 3.676e-08
8020.0, 3.176e-08
8022.0, 3.523e-08
8024.0, 3.31e-08
8026.0, 5.013e-08
8028.0, 5.396e-08
8030.0, 4.774e-08
8032.0, 4.676e-08
8034.0, 4.457e-08
8036.0, 5.929e-08
8038.0, 3.7e-08
8040.0, 4.522e-08
8042.0, 4.188e-08
8044.0, 4.322e-08
8046.0, 3.349e-08
8048.0, 4.428e-08
8050.0, 3.328e-08
8052.0, 2.651e-08
8054.0, 4.118e-08
8056.0, 4.348e-08
8058.0, 2.991e-08
8060.1, 1.605e-08
8062.1, 2.922e-08
8064.1, 4.658e-08
8066.1, 3.069e-08
8068.1, 3.61e-08
8070.1, 3.303e-08
8072.1, 5.881e-08
8074.1, 5.299e-08
8076.1, 4.976e-08
8078.1, 5.008e-08
8080.1, 5.535e-08
8082.1, 3.56e-08
8084.1, 4.924e-08
8086.1, 4.11e-08
8088.1, 5.393e-08
8090.1, 3.043e-08
8092.1, 4.356e-08
8094.1, 3.076e-08
8096.1, 4.721e-08
8098.1, 4.424e-08
8100.1, 4.484e-08
8102.1, 3.171e-08
8104.1, 2.149e-08
8106.1, 3.423e-08
8108.1, 3.032e-08
8110.1, 6.709e-08
8112.1, 4.866e-08
8114.1, 3.713e-08
8116.1, 3.222e-08
8118.1, 3.229e-08
8120.1, 3.475e-08
8122.1, 3.004e-08
8124.1, 2.677e-08
8126.1, 4.436e-08
8128.1, 3.465e-08
8130.1, 2.475e-08
8132.1, 3.472e-08
8134.1, 5.42e-08
8136.1, 6.683e-08
8138.1, 3.425e-08
8140.1, 3.859e-08
8142.1, 5.652e-08
8144.1, 4.901e-08
8146.1, 3.295e-08
8148.1, 5.03e-08
8150.1, 2.79e-08
8152.1, 3.361e-08
8154.1, 3.559e-08
8156.1, 3.631e-08
8158.1, 4.279e-08
8160.2, 3.209e-08
8162.2, 3.233e-08
8164.2, 6.334e-08
8166.2, 5.402e-08
8168.2, 4.725e-08
8170.2, 1.736e-08
8172.2, 2.374e-08
8174.2, 4.54e-08
8176.2, 2.795e-08
8178.2, 3.953e-08
8180.2, 3.806e-08
8182.2, 2.327e-08
8184.2, 4.064e-08
8186.2, 2.64e-08
8188.2, 3.341e-08
8190.2, 2.145e-08
8192.2, 4.585e-08
8194.2, 3.547e-08
8196.2, 2.72e-08
8198.2, 3.325e-08
8200.2, 5.345e-08
8202.2, 4.023e-08
8204.2, 3.527e-08
8206.2, 2.382e-08
8208.2, 3.053e-08
8210.2, 4.172e-08
8212.2, 5.546e-08
8214.2, 4.951e-08
8216.2, 3.248e-08
8218.2, 3.027e-08
8220.2, 4.775e-08
8222.2, 4.605e-08
8224.2, 3.925e-08
8226.2, 4.714e-08
8228.2, 5.045e-08
8230.2, 7.113e-08
8232.2, 5.001e-08
8234.2, 5.63e-08
8236.2, 3.007e-08
8238.2, 3.997e-08
8240.2, 5.24e-08
8242.2, 4.579e-08
8244.2, 5.121e-08
8246.2, 4.91e-08
8248.2, 4.305e-08
8250.2, 5.177e-08
8252.2, 5.083e-08
8254.2, 2.872e-08
8256.2, 5.131e-08
8258.2, 5.763e-08
8260.3, 3.825e-08
8262.3, 4.35e-08
8264.3, 3.245e-08
8266.3, 6.992e-08
8268.3, 3.951e-08
8270.3, 3.438e-08
8272.3, 2.409e-08
8274.3, 3.556e-08
8276.3, 5.286e-08
8278.3, 3.479e-08
8280.3, 5.438e-08
8282.3, 3.728e-08
8284.3, 5.165e-08
8286.3, 4.4e-08
8288.3, 6.277e-08
8290.3, 4.986e-08
8292.3, 4.61e-08
8294.3, 4.921e-08
8296.3, 3.025e-08
8298.3, 3.171e-08
8300.3, 4.739e-08
8302.3, 4.439e-08
8304.3, 4.278e-08
8306.3, 5.896e-08
8308.3, 4.058e-08
8310.3, 4.341e-08
8312.3, 5.477e-08
8314.3, 3.381e-08
8316.3, 4.819e-08
8318.3, 6.857e-08
8320.3, 5.435e-08
8322.3, 4.492e-08
8324.3, 4.243e-08
8326.3, 4.332e-08
8328.3, 3.859e-08
8330.3, 4.275e-08
8332.3, 1.739e-08
8334.3, 5.677e-08
8336.3, 5.257e-08
8338.3, 3.637e-08
8340.3, 4.338e-08
8342.3, 4.115e-08
8344.3, 2.668e-08
8346.3, 3.894e-08
8348.3, 4.968e-08
8350.3, 3.329e-08
8352.3, 4.637e-08
8354.3, 4.282e-08
8356.3, 4.458e-08
8358.3, 2.369e-08
8360.4, 3.629e-08
8362.4, 2.706e-08
8364.4, 4.938e-08
8366.4, 6.433e-08
8368.4, 2.591e-08
8370.4, 2.863e-08
8372.4, 3.989e-08
8374.4, 3.741e-08
8376.4, 5.348e-08
8378.4, 3.626e-08
8380.4, 4.485e-08
8382.4, 3.964e-08
8384.4, 2.872e-08
8386.4, 3.485e-08
8388.4, 5.267e-08
8390.4, 2.213e-08
8392.4, 3.317e-08
8394.4, 4.422e-08
8396.4, 4.665e-08
8398.4, 5.236e-08
8400.4, -4.639e-08
8402.4, -4.576e-08
8404.4, -4.338e-08
8406.4, -3.749e-08
8408.4, -4.113e-08
8410.4, -3.763e-08
8412.4, -3.53e-08
8414.4, -4.209e-08
8416.4, -4.092e-08
8418.4, -4.06e-08
8420.4, -4.193e-08
8422.4, -4.197e-08
8424.4, -4.347e-08
8426.4, -4.363e-08
8428.4, -4.557e-08
8430.4, -4.242e-08
8432.4, -4.418e-08
8434.4, -4.393e-08
8436.4, -4.585e-08
8438.4, -4.383e-08
8440.4, -4.41e-08
8442.4, -4.266e-08
8444.4, -4.335e-08
8446.4, -3.973e-08
8448.4, -4.144e-08
8450.4, -4.409e-08
8452.4, -4.167e-08
8454.4, -4.355e-08
8456.4, -3.861e-08
8458.4, -3.865e-08
8460.5, -4.021e-08
8462.5, -4.219e-08
8464.5, -4.057e-08
8466.5, -3.515e-08
8468.5, -4.054e-08
8470.5, -3.916e-08
8472.5, -4.123e-08
8474.5, -4.02e-08
8476.5, -3.919e-08
8478.5, -3.645e-08
8480.5, -3.829e-08
8482.5, -3.949e-08
8484.5, -3.937e-08
8486.5, -3.764e-08
8488.5, -4.12e-08
8490.5, -3.728e-08
8492.5, -3.929e-08
8494.5, -4.139e-08
8496.5, -4.032e-08
8498.5, -4.494e-08
8500.5, -4.201e-08
8502.5, -4.237e-08
8504.5, -4.442e-08
8506.5, -4.185e-08
8508.5, -4.192e-08
8510.5, -4.234e-08
8512.5, -3.565e-08
8514.5, -3.882e-08
8516.5, -3.994e-08
8518.5, -3.92e-08
8520.5, -4.131e-08
8522.5, -3.88e-08
8524.5, -3.951e-08
8526.5, -4.263e-08
8528.5, -3.917e-08
8530.5, -3.903e-08
8532.5, -3.97e-08
8534.5, -4.329e-08
8536.5, -3.899e-08
8538.5, -3.506e-08
8540.5, -3.86e-08
8542.5, -4.28e-08
8544.5, -4.276e-08
8546.5, -3.743e-08
8548.5, -3.906e-08
8550.5, -3.765e-08
8552.5, -3.924e-08
8554.5, -3.597e-08
8556.5, -3.637e-08
8558.5, -4.019e-08
8560.6, -3.355e-08
8562.6, -3.823e-08
8564.6, -3.587e-08
8566.6, -3.434e-08
8568.6, -3.804e-08
8570.6, -4.054e-08
8572.6, -4.067e-08
8574.6, -3.993e-08
8576.6, -4.121e-08
8578.6, -3.833e-08
8580.6, -3.932e-08
8582.6, -4.092e-08
8584.6, -3.954e-08
8586.6, -3.773e-08
8588.6, -3.912e-08
8590.6, -3.979e-08
8592.6, -3.778e-08
8594.6, -3.735e-08
8596.6, -3.922e-08
8598.6, -3.536e-08
8600.6, -3.714e-08
8602.6, -4.113e-08
8604.6, -3.744e-08
8606.6, -3.853e-08
8608.6, -3.881e-08
8610.6, -4.165e-08
8612.6, -4.214e-08
8614.6, -3.956e-08
8616.6, -3.764e-08
8618.6, -3.768e-08
8620.6, -3.867e-08
8622.6, -3.65e-08
8624.6, -3.771e-08
8626.6, -3.744e-08
8628.6, -3.757e-08
8630.6, -3.991e-08
8632.6, -3.914e-08
8634.6, -4.292e-08
8636.6, -4.576e-08
8638.6, -3.831e-08
8640.6, -3.931e-08
8642.6, -3.938e-08
8644.6, -3.929e-08
8646.6, -3.794e-08
8648.6, -3.934e-08
8650.6, -4.217e-08
8652.6, -3.975e-08
8654.6, -4.068e-08
8656.6, -3.905e-08
8658.6, -3.525e-08
8660.7, -3.773e-08
8662.7, -3.924e-08
8664.7, -3.903e-08
8666.7, -3.816e-08
8668.7, -4.189e-08
8670.7, -4.371e-08
8672.7, -3.798e-08
8674.7, -4.064e-08
8676.7, -3.847e-08
8678.7, -3.827e-08
8680.7, -3.676e-08
8682.7, -3.708e-08
8684.7, -3.74e-08
8686.7, -3.857e-08
8688.7, -3.736e-08
8690.7, -3.585e-08
8692.7, -3.739e-08
8694.7, -3.669e-08
8696.7, -3.585e-08
8698.7, -3.728e-08
8700.7, -3.794e-08
8702.7, -3.916e-08
8704.7, -3.309e-08
8706.7, -4.022e-08
8708.7, -3.985e-08
8710.7, -3.842e-08
8712.7, -3.876e-08
8714.7, -3.788e-08
8716.7, -3.491e-08
8718.7, -3.742e-08
8720.7, -4.363e-08
8722.7, -4.291e-08
8724.7, -4.335e-08
8726.7, -4.013e-08
8728.7, -3.876e-08
8730.7, -4.214e-08
8732.7, -3.892e-08
8734.7, -3.648e-08
8736.7, -4.124e-08
8738.7, -3.723e-08
8740.7, -3.769e-08
8742.7, -3.678e-08
8744.7, -3.54e-08
8746.7, -3.987e-08
8748.7, -3.904e-08
8750.7, -3.837e-08
8752.7, -3.562e-08
8754.7, -3.857e-08
8756.7, -3.478e-08
8758.7, -3.675e-08
8760.8, -3.565e-08
8762.8, -3.684e-08
8764.8, -3.473e-08
8766.8, -3.552e-08
8768.8, -3.329e-08
8770.8, -3.776e-08
8772.8, -3.988e-08
8774.8, -4.008e-08
8776.8, -4.059e-08
8778.8, -4.123e-08
8780.8, -4.473e-08
8782.8, -3.89e-08
8784.8, -4.266e-08
8786.8, -4.143e-08
8788.8, -3.984e-08
8790.8, -4.144e-08
8792.8, -4.22e-08
8794.8, -4.024e-08
8796.8, -4.024e-08
8798.8, -4.454e-08
8800.8, -4.278e-08
8802.8, -3.949e-08
8804.8, -4.12e-08
8806.8, -3.959e-08
8808.8, -3.858e-08
8810.8, -3.759e-08
8812.8, -4.124e-08
8814.8, -4.145e-08
8816.8, -3.778e-08
8818.8, -3.739e-08
8820.8, -3.726e-08
8822.8, -3.876e-08
8824.8, -3.886e-08
8826.8, -3.966e-08
8828.8, -3.731e-08
8830.8, -3.811e-08
8832.8, -3.826e-08
8834.8, -3.704e-08
8836.8, -4.085e-08
8838.8, -3.762e-08
8840.8, -3.977e-08
8842.8, -3.92e-08
8844.8, -3.575e-08
8846.8, -3.527e-08
8848.8, -3.649e-08
8850.8, -3.683e-08
8852.8, -3.886e-08
8854.8, -4.014e-08
8856.8, -3.811e-08
8858.8, -3.773e-08
8860.9, -3.586e-08
8862.9, -3.936e-08
8864.9, -3.672e-08
8866.9, -3.509e-08
8868.9, -3.457e-08
8870.9, -3.608e-08
8872.9, -3.835e-08
8874.9, -4.132e-08
8876.9, -4.139e-08
8878.9, -4.214e-08
8880.9, -3.895e-08
8882.9, -3.929e-08
8884.9, -3.757e-08
8886.9, -4.256e-08
8888.9, -4.265e-08
8890.9, -3.538e-08
8892.9, -3.916e-08
8894.9, -3.886e-08
8896.9, -4.055e-08
8898.9, -4.205e-08
8900.9, -4.26e-08
8902.9, -4.491e-08
8904.9, -4.306e-08
8906.9, -4.237e-08
8908.9, -4.325e-08
8910.9, -4.31e-08
8912.9, -4.263e-08
8914.9, -4.287e-08
8916.9, -3.978e-08
8918.9, -3.925e-08
8920.9, -3.957e-08
8922.9, -4.103e-08
8924.9, -4.207e-08
8926.9, -3.74e-08
8928.9, -4.152e-08
8930.9, -4.134e-08
8932.9, -3.938e-08
8934.9, -4.144e-08
8936.9, -4.035e-08
8938.9, -3.94e-08
8940.9, -4.125e-08
8942.9, -4.321e-08
8944.9, -4.239e-08
8946.9, -4.32e-08
8948.9, -4.366e-08
8950.9, -4.574e-08
8952.9, -4.056e-08
8954.9, -4.074e-08
8956.9, -3.856e-08
8958.9, -4.331e-08
8961.0, -4.143e-08
8963.0, -4.304e-08
8965.0, -4.133e-08
8967.0, -4.069e-08
8969.0, -4.018e-08
8971.0, -4.188e-08
8973.0, -4.012e-08
8975.0, -4.175e-08
8977.0, -4.631e-08
8979.0, -4.087e-08
8981.0, -4.207e-08
8983.0, -4.622e-08
8985.0, -4.263e-08
8987.0, -4.571e-08
8989.0, -4.563e-08
8991.0, -4.239e-08
8993.0, -4.396e-08
8995.0, -4.845e-08
8997.0, -4.483e-08
8999.0, -4.295e-08
9001.0, -4.108e-08
9003.0, -4.53e-08
9005.0, -4.33e-08
9007.0, -4.205e-08
9009.0, -4.255e-08
9011.0, -4.138e-08
9013.0, -4.536e-08
9015.0, -4.162e-08
9017.0, -4.388e-08
9019.0, -4.298e-08
9021.0, -4.076e-08
9023.0, -4.166e-08
9025.0, -4.167e-08
9027.0, -4.021e-08
9029.0, -4.022e-08
9031.0, -4.49e-08
9033.0, -4.118e-08
9035.0, -4.394e-08
9037.0, -4.236e-08
9039.0, -4.103e-08
9041.0, -3.81e-08
9043.0, -4.176e-08
9045.0, -3.817e-08
9047.0, -4.154e-08
9049.0, -3.961e-08
9051.0, -3.609e-08
9053.0, -3.571e-08
9055.0, -3.962e-08
9057.0, -3.769e-08
9059.0, -3.759e-08
9061.1, -4.038e-08
9063.1, -4.136e-08
9065.1, -4.515e-08
9067.1, -4.513e-08
9069.1, -3.873e-08
9071.1, -4.345e-08
9073.1, -4.221e-08
9075.1, -4.309e-08
9077.1, -4.102e-08
9079.1, -3.933e-08
9081.1, -4.026e-08
9083.1, -4.489e-08
9085.1, -4.543e-08
9087.1, -4.258e-08
9089.1, -4.361e-08
9091.1, -4.325e-08
9093.1, -4.177e-08
9095.1, -4.226e-08
9097.1, -4.161e-08
9099.1, -3.44e-08
9101.1, -3.94e-08
9103.1, -4.365e-08
9105.1, -4.315e-08
9107.1, -4.053e-08
9109.1, -4.165e-08
9111.1, -3.673e-08
9113.1, -3.828e-08
9115.1, -4.127e-08
9117.1, -4.349e-08
9119.1, -4.321e-08
9121.1, -4.129e-08
9123.1, -4.012e-08
9125.1, -3.938e-08
9127.1, -4.148e-08
9129.1, -4.103e-08
9131.1, -4.231e-08
9133.1, -3.826e-08
9135.1, -3.664e-08
9137.1, -4.043e-08
9139.1, -3.946e-08
9141.1, -3.727e-08
9143.1, -3.498e-08
9145.1, -3.57e-08
9147.1, -3.726e-08
9149.1, -3.952e-08
9151.1, -3.847e-08
9153.1, -3.908e-08
9155.1, -3.8e-08
9157.1, -3.944e-08
9159.1, -4.035e-08
9161.2, -3.881e-08
9163.2, -3.62e-08
9165.2, -3.531e-08
9167.2, -3.414e-08
9169.2, -3.564e-08
9171.2, -3.461e-08
9173.2, -3.427e-08
9175.2, -3.964e-08
9177.2, -3.783e-08
9179.2, -3.561e-08
9181.2, -3.599e-08
9183.2, -3.893e-08
9185.2, -3.69e-08
9187.2, -3.988e-08
9189.2, -3.752e-08
9191.2, -4.089e-08
9193.2, -4.027e-08
9195.2, -4.062e-08
9197.2, -3.919e-08
9199.2, -3.809e-08
9201.2, -3.804e-08
9203.2, -3.992e-08
9205.2, -3.927e-08
9207.2, -3.835e-08
9209.2, -3.858e-08
9211.2, -4.446e-08
9213.2, -4.033e-08
9215.2, -3.961e-08
9217.2, -3.875e-08
9219.2, -4.039e-08
9221.2, -3.521e-08
9223.2, -4.231e-08
9225.2, -3.607e-08
9227.2, -3.953e-08
9229.2, -3.767e-08
9231.2, -4.107e-08
9233.2, -3.871e-08
9235.2, -4.12e-08
9237.2, -3.716e-08
9239.2, -3.655e-08
9241.2, -4.118e-08
9243.2, -4.11e-08
9245.2, -4.268e-08
9247.2, -4.071e-08
9249.2, -3.586e-08
9251.2, -3.515e-08
9253.2, -3.862e-08
9255.2, -3.796e-08
9257.2, -4.044e-08
9259.2, -3.823e-08
9261.3, -4.074e-08
9263.3, -4.288e-08
9265.3, -3.963e-08
9267.3, -3.899e-08
9269.3, -3.853e-08
9271.3, -4.105e-08
9273.3, -3.597e-08
9275.3, -4.303e-08
9277.3, -4.144e-08
9279.3, -4.167e-08
9281.3, -4.517e-08
9283.3, -4.569e-08
9285.3, -4.578e-08
9287.3, -4.362e-08
9289.3, -4.243e-08
9291.3, -4.208e-08
9293.3, -4.579e-08
9295.3, -3.728e-08
9297.3, -4.257e-08
9299.3, -4.162e-08
9301.3, -4.256e-08
9303.3, -4.262e-08
9305.3, -3.797e-08
9307.3, -3.975e-08
9309.3, -4.08e-08
9311.3, -4.107e-08
9313.3, -3.994e-08
9315.3, -4.139e-08
9317.3, -4.073e-08
9319.3, -3.746e-08
9321.3, -3.729e-08
9323.3, -4.071e-08
9325.3, -4.204e-08
9327.3, -4.13e-08
9329.3, -3.759e-08
9331.3, -4.083e-08
9333.3, -4.092e-08
9335.3, -4.39e-08
9337.3, -4.084e-08
9339.3, -4.008e-08
9341.3, -3.92e-08
9343.3, -4.478e-08
9345.3, -3.902e-08
9347.3, -4.045e-08
9349.3, -4.298e-08
9351.3, -4.183e-08
9353.3, -4.275e-08
9355.3, -4.084e-08
9357.3, -4.208e-08
9359.3, -4.564e-08
9361.4, -4.386e-08
9363.4, -4.063e-08
9365.4, -4.194e-08
9367.4, -4.313e-08
9369.4, -4.007e-08
9371.4, -4.244e-08
9373.4, -4.29e-08
9375.4, -4.36e-08
9377.4, -4.228e-08
9379.4, -4.025e-08
9381.4, -4.424e-08
9383.4, -4.186e-08
9385.4, -4.321e-08
9387.4, -4.082e-08
9389.4, -4.222e-08
9391.4, -4.238e-08
9393.4, -4.143e-08
9395.4, -3.967e-08
9397.4, -4.14e-08
9399.4, -3.801e-08
9401.4, -4.301e-08
9403.4, -4.37e-08
9405.4, -4.187e-08
9407.4, -4.307e-08
9409.4, -4.726e-08
9411.4, -4.675e-08
9413.4, -4.446e-08
9415.4, -4.218e-08
9417.4, -4.51e-08
9419.4, -3.994e-08
9421.4, -4.04e-08
9423.4, -4.151e-08
9425.4, -4.804e-08
9427.4, -4.898e-08
9429.4, -4.6e-08
9431.4, -4.351e-08
9433.4, -4.572e-08
9435.4, -4.614e-08
9437.4, -4.704e-08
9439.4, -4.257e-08
9441.4, -4.179e-08
9443.4, -4.506e-08
9445.4, -4.258e-08
9447.4, -3.991e-08
9449.4, -4.422e-08
9451.4, -4.255e-08
9453.4, -3.947e-08
9455.4, -4.118e-08
9457.4, -4.663e-08
9459.4, -4.154e-08
9461.5, -4.281e-08
9463.5, -4.36e-08
9465.5, -4.454e-08
9467.5, -4.354e-08
9469.5, -4.292e-08
9471.5, -4.593e-08
9473.5, -4.538e-08
9475.5, -4.553e-08
9477.5, -4.743e-08
9479.5, -5.101e-08
9481.5, -4.782e-08
9483.5, -4.638e-08
9485.5, -4.816e-08
9487.5, -4.926e-08
9489.5, -4.794e-08
9491.5, -4.429e-08
9493.5, -4.284e-08
9495.5, -4.677e-08
9497.5, -4.53e-09
9499.5, 1.417e-08
9501.5, 1.653e-08
9503.5, 1.867e-08
9505.5, 1.422e-08
9507.5, 1.592e-08
9509.5, 2.512e-08
9511.5, 2.469e-08
9513.5, 3.193e-08
9515.5, 2.667e-08
9517.5, 1.721e-08
9519.5, 1.818e-08
9521.5, 2.695e-08
9523.5, 3.047e-08
9525.5, 3.079e-08
9527.5, 2.138e-08
9529.5, 2.202e-08
9531.5, 2.164e-08
9533.5, 1.475e-08
9535.5, 8.44e-09
9537.5, 1.62e-08
9539.5, 1.899e-08
9541.5, 3.767e-08
9543.5, 3.601e-08
9545.5, 4.603e-08
9547.5, 2.31e-08
9549.5, 3.56e-08
9551.5, 3.287e-08
9553.5, 1.764e-08
9555.5, 3.322e-08
9557.5, 1.467e-08
9559.5, 2.977e-08
9561.6, 2.488e-08
9563.6, 3.219e-08
9565.6, 1.746e-08
9567.6, 2.369e-08
9569.6, 3.221e-08
9571.6, 2.622e-08
9573.6, 4.269e-08
9575.6, 2.218e-08
9577.6, 3.723e-08
9579.6, 4.14e-08
9581.6, 1.121e-08
9583.6, 2.72e-08
9585.6, 3.007e-08
9587.6, 3.951e-08
9589.6, 2.181e-08
9591.6, 4.74e-08
9593.6, 3.624e-08
9595.6, 3.011e-08
9597.6, 3.203e-08
9599.6, 2.381e-08
9601.6, 1.65e-08
9603.6, 2.235e-08
9605.6, 2.312e-08
9607.6, 3.458e-08
9609.6, 3.197e-08
9611.6, 4.186e-08
9613.6, 3.997e-08
9615.6, 2.725e-08
9617.6, 3.223e-08
9619.6, 3.223e-08
9621.6, 1.744e-08
9623.6, 3.845e-08
9625.6, 2.365e-08
9627.6, 4.864e-08
9629.6, 1.164e-08
9631.6, 3.603e-08
9633.6, 3.128e-08
9635.6, 4.075e-08
9637.6, 5.323e-08
9639.6, 3.382e-08
9641.6, 3.552e-08
9643.6, 3.294e-08
9645.6, 3.413e-08
9647.6, 4.277e-08
9649.6, 2.827e-08
9651.6, 2.244e-08
9653.6, 3.167e-08
9655.6, 3.715e-08
9657.6, 4.062e-08
9659.6, 4.879e-08
9661.7, 2.244e-08
9663.7, 3.736e-08
9665.7, 3.302e-08
9667.7, 3.696e-08
9669.7, 4.067e-08
9671.7, 3.716e-08
9673.7, 3.673e-08
9675.7, 5.337e-08
9677.7, 3.266e-08
9679.7, 3.481e-08
9681.7, 2.81e-08
9683.7, 4.296e-08
9685.7, 3.196e-08
9687.7, 3.345e-08
9689.7, 4.306e-08
9691.7, 4.929e-08
9693.7, 3.758e-08
9695.7, 2.699e-08
9697.7, 4.17e-08
9699.7, 5.434e-08
9701.7, 4.456e-08
9703.7, 3.451e-08
9705.7, 4.162e-08
9707.7, 6.512e-08
9709.7, 5.391e-08
9711.7, 4.61e-08
9713.7, 4.17e-08
9715.7, 3.332e-08
9717.7, 3.595e-08
9719.7, 2.885e-08
9721.7, 4.105e-08
9723.7, 2.756e-08
9725.7, 5.551e-08
9727.7, 5.587e-08
9729.7, 4.256e-08
9731.7, 4.484e-08
9733.7, 4.929e-08
9735.7, 3.869e-08
9737.7, 3.84e-08
9739.7, 5.79e-08
9741.7, 4.111e-08
9743.7, 3.899e-08
9745.7, 4.716e-08
9747.7, 3.537e-08
9749.7, 5.54e-08
9751.7, 5.502e-08
9753.7, 6.209e-08
9755.7, 1.881e-08
9757.7, 3.599e-08
9759.7, 2.934e-08
9761.8, 3.846e-08
9763.8, 6.754e-08
9765.8, 3.961e-08
9767.8, 2.726e-08
9769.8, 4.591e-08
9771.8, 3.425e-08
9773.8, 4.21e-08
9775.8, 5.257e-08
9777.8, 3.587e-08
9779.8, 4.467e-08
9781.8, 2.98e-08
9783.8, 2.541e-08
9785.8, 3.154e-08
9787.8, 3.194e-08
9789.8, 2.502e-08
9791.8, 5.065e-08
9793.8, 3.364e-08
9795.8, 5.648e-08
9797.8, 4.457e-08
9799.8, 3.414e-08
9801.8, 3.924e-08
9803.8, 6.341e-08
9805.8, 6.107e-08
9807.8, 5.458e-08
9809.8, 4.359e-08
9811.8, 4.601e-08
9813.8, 3.878e-08
9815.8, 5.849e-08
9817.8, 7.414e-08
9819.8, 4.198e-08
9821.8, 3.788e-08
9823.8, 5.531e-08
9825.8, 4.789e-08
9827.8, 2.758e-08
9829.8, 3.612e-08
9831.8, 4.763e-08
9833.8, 4.278e-08
9835.8, 4.593e-08
9837.8, 4.561e-08
9839.8, 2.67e-08
9841.8, 5.564e-08
9843.8, 3.35e-08
9845.8, 4.23e-08
9847.8, 6.211e-08
9849.8, 3.519e-08
9851.8, 3.494e-08
9853.8, 6.841e-08
9855.8, 3.345e-08
9857.8, 3.826e-08
9859.8, 2.051e-08
9861.9, 5.11e-08
9863.9, 5.381e-08
9865.9, 5.523e-08
9867.9, 3.407e-08
9869.9, 3.119e-08
9871.9, 2.182e-08
9873.9, 3.986e-08
9875.9, 3.309e-08
9877.9, 4.724e-08
9879.9, 3.636e-08
9881.9, 3.989e-08
9883.9, 5.258e-08
9885.9, 4.218e-08
9887.9, 4.245e-08
9889.9, 4.678e-08
9891.9, 4.356e-08
9893.9, 4.797e-08
9895.9, 3.618e-08
9897.9, 4.212e-08
9899.9, 3.821e-08
9901.9, 3.005e-08
9903.9, 3.93e-08
9905.9, 5.841e-08
9907.9, 5.622e-08
9909.9, 4.622e-08
9911.9, 4.33e-08
9913.9, 5.021e-08
9915.9, 4.733e-08
9917.9, 4.301e-08
9919.9, 5.307e-08
9921.9, 3.553e-08
9923.9, 4.592e-08
9925.9, 4.39e-08
9927.9, 4.798e-08
9929.9, 5.1e-08
9931.9, 5.864e-08
9933.9, 3.788e-08
9935.9, 3.345e-08
9937.9, 5.292e-08
9939.9, 5.678e-08
9941.9, 3.341e-08
9943.9, 3.289e-08
9945.9, 2.418e-08
9947.9, 2.465e-08
9949.9, 6.572e-08
9951.9, 4.402e-08
9953.9, 5.631e-08
9955.9, 2.946e-08
9957.9, 3.859e-08
9959.9, 3.364e-08
9962.0, 4.226e-08
9964.0, 3.769e-08
9966.0, 4.974e-08
9968.0, 5.086e-08
9970.0, 3.553e-08
9972.0, 3.205e-08
9974.0, 5.757e-08
9976.0, 5.053e-08
9978.0, 3.823e-08
9980.0, 5.553e-08
9982.0, 5.415e-08
9984.0, 4.738e-08
9986.0, 4.683e-08
9988.0, 4.743e-08
9990.0, 5.346e-08
9992.0, 4.945e-08
9994.0, 3.973e-08
9996.0, 4.643e-08
9998.0, 5.311e-08
10000.0, 4.834e-08
10002.0, 4.009e-08
10004.0, 4.828e-08
10006.0, 5.025e-08
10008.0, 5.402e-08
10010.0, 4.824e-08
10012.0, 5.911e-08
10014.0, 4.261e-08
10016.0, 3.021e-08
10018.0, 3.846e-08
10020.0, 4.347e-08
10022.0, 3.031e-08
10024.0, 5.424e-08
10026.0, 4.999e-08
10028.0, 6.767e-08
10030.0, 5.885e-08
10032.0, 2.343e-08
10034.0, 4.931e-08
10036.0, 4.642e-08
10038.0, 5.581e-08
10040.0, 5.506e-08
10042.0, 5.344e-08
10044.0, 5.893e-08
10046.0, 4.838e-08
10048.0, 3.922e-08
10050.0, 5.897e-08
10052.0, 4.705e-08
10054.0, 5.167e-08
10056.0, 5.92e-08
10058.0, 4.593e-08
10060.0, 5.14e-08
10062.0, 5.321e-08
10064.0, 4.687e-08
10066.0, 4.12e-08
10068.0, 6.67e-08
10070.0, 5.587e-08
10072.0, 4.025e-08
10074.0, 4.333e-08
10076.0, 4.295e-08
10078.0, 4.857e-08
10080.0, 4.778e-08
10082.0, 4.509e-08
10084.0, 3.969e-08
10086.0, 4.206e-08
10088.0, 4.917e-08
10090.0, 4.32e-08
10092.0, 4.255e-08
10094.0, 5.695e-08
10096.0, 3.541e-08
10098.0, 4.703e-08
10100.0, 4.381e-08
10102.0, 4.966e-08
10104.0, 4.19e-08
10106.0, 2.216e-08
10108.0, 4.894e-08
10110.0, 4.508e-08
10112.0, 3.276e-08
10114.0, 4.764e-08
10116.0, 2.803e-08
10118.0, 4.515e-08
10120.0, 4.083e-08
10122.0, 4.948e-08
10124.0, 2.841e-08
10126.0, 5.023e-08
10128.0, 5.029e-08
10130.0, 4.976e-08
10132.0, 5.274e-08
10134.0, 4.985e-08
10136.0, 4.703e-08
10138.0, 4.891e-08
10140.0, 4.794e-08
10142.0, 6.316e-08
10144.0, 4.272e-08
10146.0, 5.519e-08
10148.0, 4.21e-08
10150.0, 6.29e-08
10152.0, 4.095e-08
10154.0, 4.855e-08
10156.0, 5.845e-08
10158.0, 6.105e-08
10160.0, 5.857e-08
10162.0, 4.964e-08
10164.0, 6.033e-08
10166.0, 4.921e-08
10168.0, 5.091e-08
10170.0, 3.128e-08
10172.0, 5.52e-08
10174.0, 5.394e-08
10176.0, 7.282e-08
10178.0, 5.265e-08
10180.0, 5.126e-08
10182.0, 3.525e-08
10184.0, 4.298e-08
10186.0, 4.394e-08
10188.0, 3.879e-08
10190.0, 4.927e-08
10192.0, 3.637e-08
10194.0, 5.023e-08
10196.0, 4.552e-08
10198.0, 7.092e-08
10200.0, 3.379e-08
10202.0, 4.336e-08
10204.0, 4.016e-08
10206.0, 3.83e-08
10208.0, 3.948e-08
10210.0, 3.792e-08
10212.0, 3.617e-08
10214.0, 4.734e-08
10216.0, 3.328e-08
10218.0, 4.142e-08
10220.0, 3.867e-08
10222.0, 5.253e-08
10224.0, 4.814e-08
10226.0, 3.578e-08
10228.0, 3.365e-08
10230.0, 3.517e-08
10232.0, 5.722e-08
10234.0, 4.601e-08
10236.0, 5.089e-08
10238.0, 4.491e-08
10240.0, 4.517e-08
10242.0, 4.202e-08
10244.0, 3.633e-08
10246.0, 4.124e-08
10248.0, 4.783e-08
10250.0, 3.697e-08
10252.0, 5.555e-08
10254.0, 5.313e-08
10256.0, 5.441e-08
10258.0, 2.909e-08
10260.0, 4.766e-08
10262.0, 3.906e-08
10264.0, 3.439e-08
10266.0, 6.059e-08
10268.0, 5.928e-08
10270.0, 5.458e-08
10272.0, 4.313e-08
10274.0, 4.279e-08
10276.0, 3.095e-08
10278.0, 3.984e-08
10280.0, 6.173e-08
10282.0, 4.97e-08
10284.0, 3.462e-08
10286.0, 3.477e-08
10288.0, 4.154e-08
10290.0, 3.487e-08
10292.0, 5.168e-08
10294.0, 3.706e-08
10296.0, 3.209e-08
10298.0, 5.373e-08
10300.0, 4.16e-08
10302.0, 5.332e-08
10304.0, 3.336e-08
10306.0, 5e-08
10308.0, 4.002e-08
10310.0, 6.778e-08
10312.0, 5.377e-08
10314.0, 4.7e-08
10316.0, 4.651e-08
10318.0, 4.73e-08
10320.0, 5.665e-08
10322.0, 6.354e-08
10324.0, 5.907e-08
10326.0, 5.719e-08
10328.0, 6.032e-08
10330.0, 3.842e-08
10332.0, 5.873e-08
10334.0, 3.743e-08
10336.0, 3.842e-08
10338.0, 5.605e-08
10340.0, 6.198e-08
10342.0, 4.787e-08
10344.0, 3.654e-08
10346.0, 6.076e-08
10348.0, 4.177e-08
10350.0, 5.558e-08
10352.0, 5.597e-08
10354.0, 4.905e-08
10356.0, 4.813e-08
10358.0, 5.113e-08
10360.0, 3.702e-08
10362.0, 4.72e-08
10364.0, 3.853e-08
10366.0, 6.194e-08
10368.0, 5.538e-08
10370.0, 5.418e-08
10372.0, 5.157e-08
10374.0, 5.892e-08
10376.0, 6.06e-08
10378.0, 4.933e-08
10380.0, 4.438e-08
10382.0, 5.783e-08
10384.0, 4.168e-08
10386.0, 2.443e-08
10388.0, 5.678e-08
10390.0, 6.154e-08
10392.0, 4.934e-08
10394.0, 4.497e-08
10396.0, 3.069e-08
10398.0, 4.046e-08
10400.0, 4.178e-08
10402.0, 4.685e-08
10404.0, 4.748e-08
10406.0, 6.761e-08
10408.0, 5.744e-08
10410.0, 3.522e-08
10412.0, 6.596e-08
10414.0, 5.248e-08
10416.0, 6.305e-08
10418.0, 7.19e-08
10420.0, 6.42e-08
10422.0, 5.148e-08
10424.0, 6.022e-08
10426.0, 3.266e-08
10428.0, 5.723e-08
10430.0, 4.758e-08
10432.0, 3.865e-08
10434.0, 5.135e-08
10436.0, 5.605e-08
10438.0, 5.222e-08
10440.0, 4.38e-08
10442.0, 3.99e-08
10444.0, 4.696e-08
10446.0, 3.759e-08
10448.0, 4.017e-08
10450.0, 4.929e-08
10452.0, 5.423e-08
10454.0, 4.983e-08
10456.0, 5.957e-08
10458.0, 5.307e-08
10460.0, 4.837e-08
10462.0, 4.445e-08
10464.0, 3.452e-08
10466.0, 5.476e-08
10468.0, 4.007e-08
10470.0, 4.324e-08
10472.0, 5.642e-08
10474.0, 4.684e-08
10476.0, 3.736e-08
10478.0, 5.541e-08
10480.0, 4.651e-08
10482.0, 3.712e-08
10484.0, 4.653e-08
10486.0, 4.782e-08
10488.0, 2.932e-08
10490.0, 3.894e-08
10492.0, 4.702e-08
10494.0, 4.404e-08
10496.0, 4.924e-08
10498.0, 4.97e-09
10500.0, -3.641e-08
10502.0, -3.904e-08
10504.0, -3.824e-08
10506.0, -3.587e-08
10508.0, -3.875e-08
10510.0, -3.357e-08
10513.0, -3.581e-08
10515.0, -3.931e-08
10517.0, -3.803e-08
10519.0, -3.695e-08
10521.0, -3.683e-08
10523.0, -3.897e-08
10525.0, -3.394e-08
10527.0, -3.429e-08
10529.0, -3.567e-08
10531.0, -3.707e-08
10533.0, -3.76e-08
10535.0, -3.452e-08
10537.0, -3.717e-08
10539.0, -3.719e-08
10541.0, -3.787e-08
10543.0, -3.929e-08
10545.0, -3.653e-08
10547.0, -3.796e-08
10549.0, -3.444e-08
10551.0, -3.709e-08
10553.0, -3.474e-08
10555.0, -3.629e-08
10557.0, -3.68e-08
10559.0, -3.688e-08
10561.0, -3.548e-08
10563.0, -3.424e-08
10565.0, -3.529e-08
10567.0, -3.487e-08
10569.0, -3.373e-08
10571.0, -3.529e-08
10573.0, -3.941e-08
10575.0, -3.491e-08
10577.0, -3.854e-08
10579.0, -3.733e-08
10581.0, -3.698e-08
10583.0, -4.001e-08
10585.0, -4.235e-08
10587.0, -4.137e-08
10589.0, -4.204e-08
10591.0, -3.502e-08
10593.0, -3.888e-08
10595.0, -3.97e-08
10597.0, -4e-08
10599.0, -4.166e-08
10601.0, -3.889e-08
10603.0, -3.896e-08
10605.0, -3.998e-08
10607.0, -3.884e-08
10609.0, -4.082e-08
10611.0, -3.766e-08
10613.0, -4.078e-08
10615.0, -4.048e-08
10617.0, -3.465e-08
10619.0, -3.319e-08
10621.0, -3.254e-08
10623.0, -3.672e-08
10625.0, -4.042e-08
10627.0, -3.502e-08
10629.0, -3.884e-08
10631.0, -3.584e-08
10633.0, -3.691e-08
10635.0, -4.063e-08
10637.0, -4.1e-08
10639.0, -3.853e-08
10641.0, -3.806e-08
10643.0, -3.391e-08
10645.0, -3.532e-08
10647.0, -3.571e-08
10649.0, -3.916e-08
10651.0, -3.901e-08
10653.0, -3.499e-08
10655.0, -3.633e-08
10657.0, -3.743e-08
10659.0, -3.952e-08
10661.0, -3.813e-08
10663.0, -3.445e-08
10665.0, -3.994e-08
10667.0, -3.829e-08
10669.0, -3.821e-08
10671.0, -3.806e-08
10673.0, -3.759e-08
10675.0, -3.972e-08
10677.0, -4.27e-08
10679.0, -3.992e-08
10681.0, -3.94e-08
10683.0, -3.771e-08
10685.0, -3.737e-08
10687.0, -4.039e-08
10689.0, -3.931e-08
10691.0, -3.902e-08
10693.0, -4.288e-08
10695.0, -4.214e-08
10697.0, -4.573e-08
10699.0, -4.251e-08
10701.0, -4.106e-08
10703.0, -3.939e-08
10705.0, -4.007e-08
10707.0, -4.342e-08
10709.0, -4.224e-08
10711.0, -3.833e-08
10713.0, -3.891e-08
10715.0, -3.623e-08
10717.0, -4.056e-08
10719.0, -4.073e-08
10721.0, -3.546e-08
10723.0, -3.885e-08
10725.0, -3.365e-08
10727.0, -4.109e-08
10729.0, -3.895e-08
10731.0, -4.17e-08
10733.0, -3.868e-08
10735.0, -3.873e-08
10737.0, -3.742e-08
10739.0, -3.606e-08
10741.0, -3.434e-08
10743.0, -3.389e-08
10745.0, -3.752e-08
10747.0, -3.722e-08
10749.0, -3.846e-08
10751.0, -3.545e-08
10753.0, -3.534e-08
10755.0, -3.535e-08
10757.0, -3.82e-08
10759.0, -3.529e-08
10761.0, -3.293e-08
10763.0, -3.14e-08
10765.0, -3.225e-08
10767.0, -3.413e-08
10769.0, -3.303e-08
10771.0, -3.6e-08
10773.0, -3.771e-08
10775.0, -3.464e-08
10777.0, -3.586e-08
10779.0, -3.469e-08
10781.0, -3.677e-08
10783.0, -3.497e-08
10785.0, -3.621e-08
10787.0, -3.455e-08
10789.0, -3.754e-08
10791.0, -3.393e-08
10793.0, -3.207e-08
10795.0, -3.467e-08
10797.0, -3.557e-08
10799.0, -3.519e-08
10801.0, -3.21e-08
10803.0, -2.835e-08
10805.0, -3.288e-08
10807.0, -3.087e-08
10809.0, -3.235e-08
10811.0, -3.37e-08
10813.0, -2.967e-08
10815.0, -3.077e-08
10817.0, -3.038e-08
10819.0, -3.297e-08
10821.0, -3.281e-08
10823.0, -3.195e-08
10825.0, -3.679e-08
10827.0, -3.435e-08
10829.0, -3.807e-08
10831.0, -3.557e-08
10833.0, -3.873e-08
10835.0, -4.054e-08
10837.0, -3.561e-08
10839.0, -4.032e-08
10841.0, -3.784e-08
10843.0, -3.766e-08
10845.0, -3.716e-08
10847.0, -3.807e-08
10849.0, -4.366e-08
10851.0, -3.819e-08
10853.0, -3.959e-08
10855.0, -3.797e-08
10857.0, -4.104e-08
10859.0, -3.845e-08
10861.0, -4.218e-08
10863.0, -3.684e-08
10865.0, -3.64e-08
10867.0, -3.899e-08
10869.0, -3.829e-08
10871.0, -3.809e-08
10873.0, -4.046e-08
10875.0, -3.91e-08
10877.0, -4.174e-08
10879.0, -3.268e-08
10881.0, -4.142e-08
10883.0, -3.874e-08
10885.0, -3.529e-08
10887.0, -3.488e-08
10889.0, -3.536e-08
10891.0, -3.458e-08
10893.0, -3.682e-08
10895.0, -4.138e-08
10897.0, -3.838e-08
10899.0, -4.025e-08
10901.0, -4.1e-08
10903.0, -3.891e-08
10905.0, -4.047e-08
10907.0, -3.829e-08
10909.0, -3.866e-08
10911.0, -3.544e-08
10913.0, -3.78e-08
10915.0, -3.573e-08
10917.0, -3.945e-08
10919.0, -4.201e-08
10921.0, -4.17e-08
10923.0, -4.009e-08
10925.0, -4.163e-08
10927.0, -3.875e-08
10929.0, -4.021e-08
10931.0, -3.803e-08
10933.0, -3.847e-08
10935.0, -3.747e-08
10937.0, -3.759e-08
10939.0, -3.831e-08
10941.0, -3.472e-08
10943.0, -3.189e-08
10945.0, -3.223e-08
10947.0, -3.436e-08
10949.0, -3.316e-08
10951.0, -3.432e-08
10953.0, -3.731e-08
10955.0, -3.465e-08
10957.0, -3.248e-08
10959.0, -3.466e-08
10961.0, -3.998e-08
10963.0, -3.458e-08
10965.0, -4.011e-08
10967.0, -3.758e-08
10969.0, -3.876e-08
10971.0, -3.418e-08
10973.0, -3.645e-08
10975.0, -3.436e-08
10977.0, -3.509e-08
10979.0, -3.765e-08
10981.0, -3.545e-08
10983.0, -3.795e-08
10985.0, -3.47e-08
10987.0, -3.623e-08
10989.0, -3.45e-08
10991.0, -3.136e-08
10993.0, -3.579e-08
10995.0, -3.459e-08
10997.0, -3.469e-08
10999.0, -3.562e-08
11001.0, -3.222e-08
11003.0, -3.815e-08
11005.0, -3.703e-08
11007.0, -3.828e-08
11009.0, -3.608e-08
