Time sep (ms?), Current (A)
0.0, -4.432e-08
2.002, -4.417e-08
4.004, -4.233e-08
6.006, -4.382e-08
8.008, -4.111e-08
10.01, -4.089e-08
12.012, -4.153e-08
14.014, -4.28e-08
16.016, -4.417e-08
18.018, -3.969e-08
20.02, -4.227e-08
22.022, -4.375e-08
24.024, -4.207e-08
26.026, -4.359e-08
28.028, -4.086e-08
30.03, -4.381e-08
32.032, -4.244e-08
34.034, -4.691e-08
36.036, -4.307e-08
38.038, -4.364e-08
40.04, -4.027e-08
42.042, -4.059e-08
44.044, -4.021e-08
46.046, -3.836e-08
48.048, -4.143e-08
50.05, -4.011e-08
52.052, -3.85e-08
54.054, -3.886e-08
56.056, -3.806e-08
58.058, -4.118e-08
60.06, -3.797e-08
62.062, -4.195e-08
64.064, -4.128e-08
66.066, -4.166e-08
68.068, -4.247e-08
70.07, -4.303e-08
72.072, -4.33e-08
74.074, -4.537e-08
76.076, -4.53e-08
78.078, -4.353e-08
80.08, -4.501e-08
82.082, -4.532e-08
84.084, -4.401e-08
86.086, -4.23e-08
88.088, -4.098e-08
90.09, -4.276e-08
92.092, -4.283e-08
94.094, -4.442e-08
96.096, -3.953e-08
98.098, -4.182e-08
100.1, -4.141e-08
102.1, -4.329e-08
104.1, -3.957e-08
106.11, -4.02e-08
108.11, -4.265e-08
110.11, -3.839e-08
112.11, -3.994e-08
114.11, -4.282e-08
116.12, -4.423e-08
118.12, -4.721e-08
120.12, -4.605e-08
122.12, -4.16e-08
124.12, -3.758e-08
126.13, -4.169e-08
128.13, -3.829e-08
130.13, -4.172e-08
132.13, -4.005e-08
134.13, -3.993e-08
136.14, -4.156e-08
138.14, -3.861e-08
140.14, -4.299e-08
142.14, -4.441e-08
144.14, -4.365e-08
146.15, -4.413e-08
148.15, -4.06e-08
150.15, -4.667e-08
152.15, -3.772e-08
154.15, -4.474e-08
156.16, -4.292e-08
158.16, -4.06e-08
160.16, -4.267e-08
162.16, -4.39e-08
164.16, -4.673e-08
166.17, -4.525e-08
168.17, -4.696e-08
170.17, -4.385e-08
172.17, -4.379e-08
174.17, -4.701e-08
176.18, -4.386e-08
178.18, -4.284e-08
180.18, -4.454e-08
182.18, -4.279e-08
184.18, -4.57e-08
186.19, -4.135e-08
188.19, -4.259e-08
190.19, -4.099e-08
192.19, -4.347e-08
194.19, -4.26e-08
196.2, -4.112e-08
198.2, -3.953e-08
200.2, -4.316e-08
202.2, -4.194e-08
204.2, -4.045e-08
206.21, -4.05e-08
208.21, -4.374e-08
210.21, -3.814e-08
212.21, -4.109e-08
214.21, -4.032e-08
216.22, -4.058e-08
218.22, -4.218e-08
220.22, -4.227e-08
222.22, -3.971e-08
224.22, -3.844e-08
226.23, -4.085e-08
228.23, -3.856e-08
230.23, -4.283e-08
232.23, -3.992e-08
234.23, -4.243e-08
236.24, -4.18e-08
238.24, -4.501e-08
240.24, -4.346e-08
242.24, -4.211e-08
244.24, -4.025e-08
246.25, -4.178e-08
248.25, -4.057e-08
250.25, -3.721e-08
252.25, -3.818e-08
254.25, -3.888e-08
256.26, -3.889e-08
258.26, -3.784e-08
260.26, -3.893e-08
262.26, -4.238e-08
264.26, -4.066e-08
266.27, -3.977e-08
268.27, -4.04e-08
270.27, -4.093e-08
272.27, -4.129e-08
274.27, -3.982e-08
276.28, -3.793e-08
278.28, -3.667e-08
280.28, -3.856e-08
282.28, -4.02e-08
284.28, -4.635e-08
286.29, -4.209e-08
288.29, -4.236e-08
290.29, -3.77e-08
292.29, -4.212e-08
294.29, -3.994e-08
296.3, -4.051e-08
298.3, -3.777e-08
300.3, -3.909e-08
302.3, -3.833e-08
304.3, -4.111e-08
306.31, -4.418e-08
308.31, -3.999e-08
310.31, -4.337e-08
312.31, -4.29e-08
314.31, -4.372e-08
316.32, -4.154e-08
318.32, -4.065e-08
320.32, -3.905e-08
322.32, -3.956e-08
324.32, -4.325e-08
326.33, -4.377e-08
328.33, -4.067e-08
330.33, -4.523e-08
332.33, -4.495e-08
334.33, -4.263e-08
336.34, -4.083e-08
338.34, -4.293e-08
340.34, -4.43e-08
342.34, -4.444e-08
344.34, -4.481e-08
346.35, -4.452e-08
348.35, -4.511e-08
350.35, -4.374e-08
352.35, -4.594e-08
354.35, -4.497e-08
356.36, -4.571e-08
358.36, -4.585e-08
360.36, -4.391e-08
362.36, -4.422e-08
364.36, -4.446e-08
366.37, -4.188e-08
368.37, -4.402e-08
370.37, -4.319e-08
372.37, -4.329e-08
374.37, -4.501e-08
376.38, -4.551e-08
378.38, -4.448e-08
380.38, -4.18e-08
382.38, -4.219e-08
384.38, -4.182e-08
386.39, -4.637e-08
388.39, -4.332e-08
390.39, -4.76e-08
392.39, -4.395e-08
394.39, -4.481e-08
396.4, -4.603e-08
398.4, -4.599e-08
400.4, -4.385e-08
402.4, -4.311e-08
404.4, -4.311e-08
406.41, -4.011e-08
408.41, -4.088e-08
410.41, -4.321e-08
412.41, -4.018e-08
414.41, -4.116e-08
416.42, -4.293e-08
418.42, -4.205e-08
420.42, -4.418e-08
422.42, -4.425e-08
424.42, -4.051e-08
426.43, -4.178e-08
428.43, -3.872e-08
430.43, -4.342e-08
432.43, -3.891e-08
434.43, -3.991e-08
436.44, -3.928e-08
438.44, -4.214e-08
440.44, -4.034e-08
442.44, -4.395e-08
444.44, -4.143e-08
446.45, -4.253e-08
448.45, -4.366e-08
450.45, -3.806e-08
452.45, -4.221e-08
454.45, -4.416e-08
456.46, -4.154e-08
458.46, -4.415e-08
460.46, -4.256e-08
462.46, -4.181e-08
464.46, -3.912e-08
466.47, -4.027e-08
468.47, -3.882e-08
470.47, -4.106e-08
472.47, -4.352e-08
474.47, -4.205e-08
476.48, -3.895e-08
478.48, -4.437e-08
480.48, -4.529e-08
482.48, -3.99e-08
484.48, -4.439e-08
486.49, -4.238e-08
488.49, -4.308e-08
490.49, -4.256e-08
492.49, -4.462e-08
494.49, -4.401e-08
496.5, -4.143e-08
498.5, -4.061e-08
500.5, -4.223e-08
502.5, -4.187e-08
504.5, -4.125e-08
506.51, -4.21e-08
508.51, -4.161e-08
510.51, -3.984e-08
512.51, -3.816e-08
514.51, -3.861e-08
516.52, -3.975e-08
518.52, -3.772e-08
520.52, -4.263e-08
522.52, -4.213e-08
524.52, -4.127e-08
526.53, -3.85e-08
528.53, -4.076e-08
530.53, -4.136e-08
532.53, -4.299e-08
534.53, -3.962e-08
536.54, -4.407e-08
538.54, -4.262e-08
540.54, -4.56e-08
542.54, -4.394e-08
544.54, -4.402e-08
546.55, -4.138e-08
548.55, -4.121e-08
550.55, -4.343e-08
552.55, -4.497e-08
554.55, -4.386e-08
556.56, -4.208e-08
558.56, -4.583e-08
560.56, -4.163e-08
562.56, -4.187e-08
564.56, -4.207e-08
566.57, -4.292e-08
568.57, -4.256e-08
570.57, -4.531e-08
572.57, -4.28e-08
574.57, -4.626e-08
576.58, -4.328e-08
578.58, -4.176e-08
580.58, -4.349e-08
582.58, -4.353e-08
584.58, -4.741e-08
586.59, -4.592e-08
588.59, -4.221e-08
590.59, -4.556e-08
592.59, -4.46e-08
594.59, -4.299e-08
596.6, -4.484e-08
598.6, -4.619e-08
600.6, -4.254e-08
602.6, -4.428e-08
604.6, -4.377e-08
606.61, -4.601e-08
608.61, -4.477e-08
610.61, -4.326e-08
612.61, -4.156e-08
614.61, -4.018e-08
616.62, -4.505e-08
618.62, -4.338e-08
620.62, -4.32e-08
622.62, -4.321e-08
624.62, -4.19e-08
626.63, -4.322e-08
628.63, -4.373e-08
630.63, -4.405e-08
632.63, -4.277e-08
634.63, -3.929e-08
636.64, -3.976e-08
638.64, -4.197e-08
640.64, -4.279e-08
642.64, -4.118e-08
644.64, -4.237e-08
646.65, -4.27e-08
648.65, -4.319e-08
650.65, -4.399e-08
652.65, -4.103e-08
654.65, -3.842e-08
656.66, -4.035e-08
658.66, -4.183e-08
660.66, -4.142e-08
662.66, -3.996e-08
664.66, -4.021e-08
666.67, -3.781e-08
668.67, -3.677e-08
670.67, -4.018e-08
672.67, -3.929e-08
674.67, -4.106e-08
676.68, -3.847e-08
678.68, -3.969e-08
680.68, -3.926e-08
682.68, -4.123e-08
684.68, -3.492e-08
686.69, -3.85e-08
688.69, -3.908e-08
690.69, -3.745e-08
692.69, -3.895e-08
694.69, -3.663e-08
696.7, -3.706e-08
698.7, -3.937e-08
700.7, -3.883e-08
702.7, -3.91e-08
704.7, -3.903e-08
706.71, -4.122e-08
708.71, -4.069e-08
710.71, -4.279e-08
712.71, -4.251e-08
714.71, -4.228e-08
716.72, -4.313e-08
718.72, -4.041e-08
720.72, -3.95e-08
722.72, -4.187e-08
724.72, -4.401e-08
726.73, -4.342e-08
728.73, -4.486e-08
730.73, -4.33e-08
732.73, -4.098e-08
734.73, -4.366e-08
736.74, -4.511e-08
738.74, -4.541e-08
740.74, -4.705e-08
742.74, -4.29e-08
744.74, -4.334e-08
746.75, -4.042e-08
748.75, -4.604e-08
750.75, -4.614e-08
752.75, -4.397e-08
754.75, -4.351e-08
756.76, -4.671e-08
758.76, -4.204e-08
760.76, -4.377e-08
762.76, -4.347e-08
764.76, -4.036e-08
766.77, -4.554e-08
768.77, -4.31e-08
770.77, -4.38e-08
772.77, -4.409e-08
774.77, -4.186e-08
776.78, -3.501e-08
778.78, -3.929e-08
780.78, -4.094e-08
782.78, -4.112e-08
784.78, -3.993e-08
786.79, -3.835e-08
788.79, -4.293e-08
790.79, -4.131e-08
792.79, -4.056e-08
794.79, -4.059e-08
796.8, -4.028e-08
798.8, -4.198e-08
800.8, -4.181e-08
802.8, -4.271e-08
804.8, -3.956e-08
806.81, -3.988e-08
808.81, -3.512e-08
810.81, -3.973e-08
812.81, -4.356e-08
814.81, -4.137e-08
816.82, -4.271e-08
818.82, -4.064e-08
820.82, -3.919e-08
822.82, -4.064e-08
824.82, -4.093e-08
826.83, -4.374e-08
828.83, -4.423e-08
830.83, -4.33e-08
832.83, -4.292e-08
834.83, -3.904e-08
836.84, -3.882e-08
838.84, -4.086e-08
840.84, -4.033e-08
842.84, -4.094e-08
844.84, -4.42e-08
846.85, -4.352e-08
848.85, -4.33e-08
850.85, -4.25e-08
852.85, -4.112e-08
854.85, -4.067e-08
856.86, -3.926e-08
858.86, -4.129e-08
860.86, -4.581e-08
862.86, -4.315e-08
864.86, -4.192e-08
866.87, -4.409e-08
868.87, -4.053e-08
870.87, -4.17e-08
872.87, -4.38e-08
874.87, -4.2e-08
876.88, -4.276e-08
878.88, -4.448e-08
880.88, -4.295e-08
882.88, -3.991e-08
884.88, -4.488e-08
886.89, -3.943e-08
888.89, -4.203e-08
890.89, -4.074e-08
892.89, -4.247e-08
894.89, -4.231e-08
896.9, -3.901e-08
898.9, -4.11e-08
900.9, -4.062e-08
902.9, -4.143e-08
904.9, -4.314e-08
906.91, -3.935e-08
908.91, -4.102e-08
910.91, -4.276e-08
912.91, -4.344e-08
914.91, -3.965e-08
916.92, -4.111e-08
918.92, -4.069e-08
920.92, -3.925e-08
922.92, -3.997e-08
924.92, -4.01e-08
926.93, -3.862e-08
928.93, -3.715e-08
930.93, -3.846e-08
932.93, -3.932e-08
934.93, -3.93e-08
936.94, -3.67e-08
938.94, -3.897e-08
940.94, -3.914e-08
942.94, -3.828e-08
944.94, -3.883e-08
946.95, -3.874e-08
948.95, -4.16e-08
950.95, -4.284e-08
952.95, -4.212e-08
954.95, -3.866e-08
956.96, -3.89e-08
958.96, -4.141e-08
960.96, -3.791e-08
962.96, -3.921e-08
964.96, -3.509e-08
966.97, -3.825e-08
968.97, -3.907e-08
970.97, -4.095e-08
972.97, -4.186e-08
974.97, -4.416e-08
976.98, -4.238e-08
978.98, -4.315e-08
980.98, -4.307e-08
982.98, -4.419e-08
984.98, -4.466e-08
986.99, -4.558e-08
988.99, -4.618e-08
990.99, -4.442e-08
992.99, -4.395e-08
994.99, -4.291e-08
997.0, -4.403e-08
999.0, -4.23e-08
1001.0, -4.298e-08
1003.0, -4.366e-08
1005.0, -4.136e-08
1007.0, -4.049e-08
1009.0, -3.96e-08
1011.0, -4.242e-08
1013.0, -4.227e-08
1015.0, -4.187e-08
1017.0, -4.194e-08
1019.0, -4.085e-08
1021.0, -4.218e-08
1023.0, -4.131e-08
1025.0, -4.423e-08
1027.0, -4.032e-08
1029.0, -4.043e-08
1031.0, -4.185e-08
1033.0, -4.344e-08
1035.0, -3.85e-08
1037.0, -4.087e-08
1039.0, -4.128e-08
1041.0, -4.03e-08
1043.0, -4.087e-08
1045.0, -4.142e-08
1047.0, -4.127e-08
1049.0, -3.881e-08
1051.0, -3.912e-08
1053.1, 2.2249e-06
1055.1, 4.1731e-06
1057.1, 3.9877e-06
1059.1, 4.2955e-06
1061.1, 4.3282e-06
1063.1, 4.372e-06
1065.1, 3.5654e-06
1067.1, 4.3859e-06
1069.1, 4.3257e-06
1071.1, 4.436e-06
1073.1, 4.2776e-06
1075.1, 4.3503e-06
1077.1, 3.4265e-06
1079.1, 4.3292e-06
1081.1, 4.1359e-06
1083.1, 3.8693e-06
1085.1, 4.7422e-06
1087.1, 4.0845e-06
1089.1, 4.5897e-06
1091.1, 4.1697e-06
1093.1, 3.702e-06
1095.1, 3.9224e-06
1097.1, 4.4994e-06
1099.1, 3.7092e-06
1101.1, 4.0209e-06
1103.1, 4.2671e-06
1105.1, 4.4598e-06
1107.1, 4.2619e-06
1109.1, 4.2904e-06
1111.1, 4.5477e-06
1113.1, 3.9134e-06
1115.1, 4.3591e-06
1117.1, 3.8853e-06
1119.1, 4.1655e-06
1121.1, 4.1082e-06
1123.1, 4.1786e-06
1125.1, 4.0782e-06
1127.1, 4.1814e-06
1129.1, 4.277e-06
1131.1, 4.3985e-06
1133.1, 4.5134e-06
1135.1, 4.4395e-06
1137.1, 3.9207e-06
1139.1, 4.3828e-06
1141.1, 4.3726e-06
1143.1, 4.465e-06
1145.1, 3.9437e-06
1147.1, 4.3955e-06
1149.1, 4.0288e-06
1151.1, 4.2414e-06
1153.2, 4.4841e-06
1155.2, 4.4317e-06
1157.2, 4.2219e-06
1159.2, 3.8215e-06
1161.2, 4.5847e-06
1163.2, 4.4385e-06
1165.2, 4.3616e-06
1167.2, 4.417e-06
1169.2, 4.2694e-06
1171.2, 3.8662e-06
1173.2, 4.1833e-06
1175.2, 4.4801e-06
1177.2, 4.1862e-06
1179.2, 4.3144e-06
1181.2, 4.2315e-06
1183.2, 4.6457e-06
1185.2, 4.0921e-06
1187.2, 4.2595e-06
1189.2, 4.4326e-06
1191.2, 4.2306e-06
1193.2, 4.2886e-06
1195.2, 4.4608e-06
1197.2, 4.441e-06
1199.2, 4.2277e-06
1201.2, 4.4448e-06
1203.2, 4.1985e-06
1205.2, 4.7043e-06
1207.2, 4.1195e-06
1209.2, 4.2612e-06
1211.2, 4.2026e-06
1213.2, 4.8019e-06
1215.2, 4.0976e-06
1217.2, 4.5152e-06
1219.2, 4.6855e-06
1221.2, 4.4251e-06
1223.2, 4.273e-06
1225.2, 4.5531e-06
1227.2, 4.4643e-06
1229.2, 4.694e-06
1231.2, 4.7715e-06
1233.2, 3.821e-06
1235.2, 4.2233e-06
1237.2, 3.8153e-06
1239.2, 4.3796e-06
1241.2, 4.6408e-06
1243.2, 4.5276e-06
1245.2, 4.5136e-06
1247.2, 4.5381e-06
1249.2, 4.3439e-06
1251.2, 4.1701e-06
1253.3, 4.8207e-06
1255.3, 4.5292e-06
1257.3, 4.5777e-06
1259.3, 4.2031e-06
1261.3, 4.563e-06
1263.3, 4.6571e-06
1265.3, 4.0989e-06
1267.3, 4.5234e-06
1269.3, 4.6047e-06
1271.3, 4.423e-06
1273.3, 4.5669e-06
1275.3, 4.4572e-06
1277.3, 4.4307e-06
1279.3, 4.5239e-06
1281.3, 4.6478e-06
1283.3, 4.263e-06
1285.3, 4.3805e-06
1287.3, 4.4582e-06
1289.3, 4.5592e-06
1291.3, 4.478e-06
1293.3, 4.3259e-06
1295.3, 4.185e-06
1297.3, 4.3119e-06
1299.3, 4.1989e-06
1301.3, 4.5263e-06
1303.3, 4.5832e-06
1305.3, 4.3474e-06
1307.3, 4.4579e-06
1309.3, 4.1941e-06
1311.3, 4.2755e-06
1313.3, 4.1401e-06
1315.3, 4.392e-06
1317.3, 3.7224e-06
1319.3, 4.4382e-06
1321.3, 4.1554e-06
1323.3, 4.1357e-06
1325.3, 4.2252e-06
1327.3, 4.7256e-06
1329.3, 4.4921e-06
1331.3, 4.138e-06
1333.3, 4.552e-06
1335.3, 4.4236e-06
1337.3, 4.0992e-06
1339.3, 4.3731e-06
1341.3, 4.6053e-06
1343.3, 4.4312e-06
1345.3, 4.1892e-06
1347.3, 4.5136e-06
1349.3, 4.5789e-06
1351.3, 4.1628e-06
1353.4, 4.3961e-06
1355.4, 4.3897e-06
1357.4, 4.1977e-06
1359.4, 4.4507e-06
1361.4, 4.574e-06
1363.4, 4.5954e-06
1365.4, 4.6575e-06
1367.4, 4.4115e-06
1369.4, 4.4159e-06
1371.4, 4.4273e-06
1373.4, 4.7889e-06
1375.4, 4.4615e-06
1377.4, 4.5246e-06
1379.4, 4.2357e-06
1381.4, 4.5878e-06
1383.4, 4.7034e-06
1385.4, 4.5314e-06
1387.4, 4.4263e-06
1389.4, 4.5849e-06
1391.4, 4.2797e-06
1393.4, 4.6981e-06
1395.4, 4.4919e-06
1397.4, 4.603e-06
1399.4, 4.7061e-06
1401.4, 4.3778e-06
1403.4, 4.206e-06
1405.4, 4.5531e-06
1407.4, 4.4681e-06
1409.4, 4.4333e-06
1411.4, 4.0715e-06
1413.4, 4.3011e-06
1415.4, 4.5084e-06
1417.4, 4.2206e-06
1419.4, 4.5793e-06
1421.4, 4.6295e-06
1423.4, 4.7214e-06
1425.4, 4.2471e-06
1427.4, 4.5173e-06
1429.4, 4.5853e-06
1431.4, 4.5417e-06
1433.4, 4.2911e-06
1435.4, 4.4314e-06
1437.4, 4.4356e-06
1439.4, 4.4039e-06
1441.4, 4.3499e-06
1443.4, 4.3968e-06
1445.4, 4.5042e-06
1447.4, 4.8898e-06
1449.4, 4.3598e-06
1451.4, 4.4765e-06
1453.5, 4.4181e-06
1455.5, 4.4696e-06
1457.5, 4.6358e-06
1459.5, 4.4241e-06
1461.5, 4.7587e-06
1463.5, 4.2283e-06
1465.5, 4.7412e-06
1467.5, 4.3244e-06
1469.5, 4.4129e-06
1471.5, 4.5318e-06
1473.5, 4.7481e-06
1475.5, 4.3672e-06
1477.5, 4.153e-06
1479.5, 4.2989e-06
1481.5, 4.7134e-06
1483.5, 4.2544e-06
1485.5, 4.4848e-06
1487.5, 3.787e-06
1489.5, 4.2119e-06
1491.5, 4.3603e-06
1493.5, 4.6696e-06
1495.5, 4.4747e-06
1497.5, 4.6516e-06
1499.5, 4.3818e-06
1501.5, 4.4546e-06
1503.5, 4.3626e-06
1505.5, 4.5226e-06
1507.5, 4.6714e-06
1509.5, 4.5566e-06
1511.5, 4.4091e-06
1513.5, 4.5463e-06
1515.5, 4.1863e-06
1517.5, 4.2213e-06
1519.5, 4.3581e-06
1521.5, 4.6914e-06
1523.5, 4.707e-06
1525.5, 4.7073e-06
1527.5, 4.4808e-06
1529.5, 4.424e-06
1531.5, 4.2884e-06
1533.5, 4.3691e-06
1535.5, 4.6422e-06
1537.5, 4.7977e-06
1539.5, 4.533e-06
1541.5, 4.2629e-06
1543.5, 4.4663e-06
1545.5, 4.3347e-06
1547.5, 4.334e-06
1549.5, 4.5945e-06
1551.5, 4.3651e-06
1553.6, 4.7025e-06
1555.6, 4.2795e-06
1557.6, 4.6541e-06
1559.6, 4.4416e-06
1561.6, 4.5443e-06
1563.6, 4.4163e-06
1565.6, 4.843e-06
1567.6, 4.4643e-06
1569.6, 4.6551e-06
1571.6, 4.1825e-06
1573.6, 4.504e-06
1575.6, 4.3811e-06
1577.6, 4.3021e-06
1579.6, 3.9828e-06
1581.6, 4.3869e-06
1583.6, 4.3446e-06
1585.6, 4.3474e-06
1587.6, 4.4824e-06
1589.6, 4.0818e-06
1591.6, 4.4982e-06
1593.6, 4.6975e-06
1595.6, 3.8266e-06
1597.6, 4.6466e-06
1599.6, 4.4425e-06
1601.6, 4.29e-06
1603.6, 4.5756e-06
1605.6, 4.6341e-06
1607.6, 4.2752e-06
1609.6, 4.6637e-06
1611.6, 4.7431e-06
1613.6, 4.2225e-06
1615.6, 4.6133e-06
1617.6, 4.4539e-06
1619.6, 4.5794e-06
1621.6, 4.3012e-06
1623.6, 4.5832e-06
1625.6, 4.3389e-06
1627.6, 4.5092e-06
1629.6, 4.6148e-06
1631.6, 4.492e-06
1633.6, 4.5238e-06
1635.6, 4.2896e-06
1637.6, 4.6518e-06
1639.6, 4.6043e-06
1641.6, 4.5834e-06
1643.6, 4.2654e-06
1645.6, 4.395e-06
1647.6, 4.3793e-06
1649.6, 4.456e-06
1651.6, 4.0312e-06
1653.7, 4.3999e-06
1655.7, 4.6976e-06
1657.7, 4.6625e-06
1659.7, 4.4802e-06
1661.7, 4.3407e-06
1663.7, 4.5616e-06
1665.7, 4.4091e-06
1667.7, 4.1232e-06
1669.7, 4.3754e-06
1671.7, 4.3444e-06
1673.7, 4.544e-06
1675.7, 4.5835e-06
1677.7, 4.7896e-06
1679.7, 4.2482e-06
1681.7, 4.8097e-06
1683.7, 4.6995e-06
1685.7, 4.4381e-06
1687.7, 4.4854e-06
1689.7, 4.47e-06
1691.7, 4.2398e-06
1693.7, 4.4824e-06
1695.7, 4.2497e-06
1697.7, 4.4088e-06
1699.7, 4.5145e-06
1701.7, 4.459e-06
1703.7, 4.2902e-06
1705.7, 4.2569e-06
1707.7, 4.4617e-06
1709.7, 4.7745e-06
1711.7, 4.3484e-06
1713.7, 4.7345e-06
1715.7, 4.5794e-06
1717.7, 4.4417e-06
1719.7, 4.4283e-06
1721.7, 4.4377e-06
1723.7, 4.0466e-06
1725.7, 4.4163e-06
1727.7, 4.4762e-06
1729.7, 4.3849e-06
1731.7, 4.288e-06
1733.7, 4.0863e-06
1735.7, 4.4879e-06
1737.7, 4.5673e-06
1739.7, 4.0132e-06
1741.7, 4.6982e-06
1743.7, 4.4347e-06
1745.7, 4.327e-06
1747.7, 4.4762e-06
1749.7, 4.6944e-06
1751.7, 4.3512e-06
1753.8, 4.5595e-06
1755.8, 4.3003e-06
1757.8, 4.2087e-06
1759.8, 4.497e-06
1761.8, 4.5827e-06
1763.8, 4.5469e-06
1765.8, 4.3493e-06
1767.8, 4.4977e-06
1769.8, 4.7255e-06
1771.8, 4.4223e-06
1773.8, 3.9288e-06
1775.8, 4.5918e-06
1777.8, 4.4336e-06
1779.8, 4.5017e-06
1781.8, 4.6195e-06
1783.8, 4.331e-06
1785.8, 4.4961e-06
1787.8, 4.5996e-06
1789.8, 4.2804e-06
1791.8, 4.4221e-06
1793.8, 4.7779e-06
1795.8, 4.3928e-06
1797.8, 4.6214e-06
1799.8, 4.4861e-06
1801.8, 4.3703e-06
1803.8, 4.4834e-06
1805.8, 4.1363e-06
1807.8, 4.5083e-06
1809.8, 3.9162e-06
1811.8, 4.3765e-06
1813.8, 4.6593e-06
1815.8, 4.4925e-06
1817.8, 4.3703e-06
1819.8, 4.5816e-06
1821.8, 4.5067e-06
1823.8, 4.3787e-06
1825.8, 4.8467e-06
1827.8, 4.6775e-06
1829.8, 4.3909e-06
1831.8, 4.7659e-06
1833.8, 4.6616e-06
1835.8, 4.5372e-06
1837.8, 4.1869e-06
1839.8, 4.6871e-06
1841.8, 4.4131e-06
1843.8, 4.6948e-06
1845.8, 4.496e-06
1847.8, 4.6124e-06
1849.8, 4.5169e-06
1851.8, 4.4926e-06
1853.9, 4.3419e-06
1855.9, 4.7784e-06
1857.9, 4.7041e-06
1859.9, 4.2847e-06
1861.9, 4.813e-06
1863.9, 4.6378e-06
1865.9, 4.531e-06
1867.9, 4.603e-06
1869.9, 4.5638e-06
1871.9, 4.6599e-06
1873.9, 4.3796e-06
1875.9, 4.6362e-06
1877.9, 4.064e-06
1879.9, 4.4751e-06
1881.9, 4.1507e-06
1883.9, 4.4754e-06
1885.9, 4.6036e-06
1887.9, 4.7403e-06
1889.9, 4.4199e-06
1891.9, 4.5471e-06
1893.9, 4.5086e-06
1895.9, 4.4667e-06
1897.9, 4.1247e-06
1899.9, 4.1622e-06
1901.9, 4.7796e-06
1903.9, 4.0759e-06
1905.9, 4.3508e-06
1907.9, 4.4942e-06
1909.9, 4.6026e-06
1911.9, 4.8769e-06
1913.9, 4.6616e-06
1915.9, 4.7634e-06
1917.9, 4.3517e-06
1919.9, 4.5252e-06
1921.9, 4.6999e-06
1923.9, 4.2809e-06
1925.9, 4.825e-06
1927.9, 4.4909e-06
1929.9, 4.465e-06
1931.9, 4.7032e-06
1933.9, 4.427e-06
1935.9, 4.7357e-06
1937.9, 4.6693e-06
1939.9, 4.3621e-06
1941.9, 4.4692e-06
1943.9, 4.7191e-06
1945.9, 4.3611e-06
1947.9, 4.4075e-06
1949.9, 4.705e-06
1951.9, 4.717e-06
1954.0, 4.4789e-06
1956.0, 4.1038e-06
1958.0, 4.4047e-06
1960.0, 4.4606e-06
1962.0, 4.6912e-06
1964.0, 4.6018e-06
1966.0, 4.2528e-06
1968.0, 4.3298e-06
1970.0, 4.5844e-06
1972.0, 3.9549e-06
1974.0, 4.5609e-06
1976.0, 4.3365e-06
1978.0, 4.771e-06
1980.0, 4.4761e-06
1982.0, 4.4603e-06
1984.0, 4.6596e-06
1986.0, 4.2686e-06
1988.0, 4.5669e-06
1990.0, 4.4644e-06
1992.0, 4.5381e-06
1994.0, 4.3442e-06
1996.0, 4.6141e-06
1998.0, 4.3646e-06
2000.0, 4.5197e-06
2002.0, 4.7404e-06
2004.0, 4.6031e-06
2006.0, 4.5064e-06
2008.0, 4.3368e-06
2010.0, 4.3999e-06
2012.0, 4.2524e-06
2014.0, 4.3232e-06
2016.0, 4.8836e-06
2018.0, 4.5898e-06
2020.0, 4.6462e-06
2022.0, 4.1488e-06
2024.0, 4.4534e-06
2026.0, 4.3734e-06
2028.0, 4.3407e-06
2030.0, 4.4546e-06
2032.0, 4.4321e-06
2034.0, 4.5915e-06
2036.0, 4.4503e-06
2038.0, 4.1937e-06
2040.0, 4.6906e-06
2042.0, 4.5524e-06
2044.0, 4.3247e-06
2046.0, 4.57e-06
2048.0, 4.5112e-06
2050.0, 4.5361e-06
2052.0, 4.28e-06
2054.1, 2.0693e-06
2056.1, -3.389e-08
2058.1, -3.779e-08
2060.1, -3.608e-08
2062.1, -3.882e-08
2064.1, -3.698e-08
2066.1, -3.735e-08
2068.1, -3.565e-08
2070.1, -3.916e-08
2072.1, -3.981e-08
2074.1, -4.011e-08
2076.1, -3.943e-08
2078.1, -3.827e-08
2080.1, -4.135e-08
2082.1, -4.014e-08
2084.1, -4.123e-08
2086.1, -4.066e-08
2088.1, -4.179e-08
2090.1, -3.884e-08
2092.1, -3.98e-08
2094.1, -3.881e-08
2096.1, -4.161e-08
2098.1, -3.983e-08
2100.1, -3.627e-08
2102.1, -3.789e-08
2104.1, -4.048e-08
2106.1, -3.988e-08
2108.1, -3.83e-08
2110.1, -3.679e-08
2112.1, -3.681e-08
2114.1, -3.995e-08
2116.1, -3.68e-08
2118.1, -3.827e-08
2120.1, -3.862e-08
2122.1, -3.821e-08
2124.1, -3.88e-08
2126.1, -3.975e-08
2128.1, -3.66e-08
2130.1, -3.968e-08
2132.1, -4.146e-08
2134.1, -4.124e-08
2136.1, -3.309e-08
2138.1, -3.69e-08
2140.1, -3.856e-08
2142.1, -3.614e-08
2144.1, -3.89e-08
2146.1, -3.638e-08
2148.1, -3.61e-08
2150.1, -3.832e-08
2152.1, -3.836e-08
2154.2, -3.481e-08
2156.2, -3.561e-08
2158.2, -3.937e-08
2160.2, -3.945e-08
2162.2, -4.118e-08
2164.2, -3.744e-08
2166.2, -3.807e-08
2168.2, -3.605e-08
2170.2, -4.036e-08
2172.2, -3.965e-08
2174.2, -4.007e-08
2176.2, -4.107e-08
2178.2, -3.925e-08
2180.2, -3.686e-08
2182.2, -3.847e-08
2184.2, -3.79e-08
2186.2, -3.707e-08
2188.2, -3.593e-08
2190.2, -3.963e-08
2192.2, -4.192e-08
2194.2, -4.059e-08
2196.2, -4.005e-08
2198.2, -3.821e-08
2200.2, -3.6e-08
2202.2, -4.107e-08
2204.2, -4.022e-08
2206.2, -3.859e-08
2208.2, -4.052e-08
2210.2, -4.049e-08
2212.2, -4.136e-08
2214.2, -4.093e-08
2216.2, -4.353e-08
2218.2, -4.587e-08
2220.2, -4.321e-08
2222.2, -4.316e-08
2224.2, -4.313e-08
2226.2, -4.111e-08
2228.2, -4.206e-08
2230.2, -4.112e-08
2232.2, -4.149e-08
2234.2, -4.359e-08
2236.2, -4.133e-08
2238.2, -4.381e-08
2240.2, -4.38e-08
2242.2, -4.005e-08
2244.2, -4.136e-08
2246.2, -4.212e-08
2248.2, -4.04e-08
2250.2, -4.11e-08
2252.2, -4.149e-08
2254.3, -4.158e-08
2256.3, -3.94e-08
2258.3, -3.821e-08
2260.3, -3.639e-08
2262.3, -3.616e-08
2264.3, -3.748e-08
2266.3, -3.892e-08
2268.3, -4.318e-08
2270.3, -4.31e-08
2272.3, -4.242e-08
2274.3, -3.969e-08
2276.3, -4.187e-08
2278.3, -3.898e-08
2280.3, -4.002e-08
2282.3, -3.827e-08
2284.3, -3.723e-08
2286.3, -3.858e-08
2288.3, -3.921e-08
2290.3, -4.243e-08
2292.3, -4.044e-08
2294.3, -4.444e-08
2296.3, -4.483e-08
2298.3, -4.038e-08
2300.3, -4.14e-08
2302.3, -4.321e-08
2304.3, -4.49e-08
2306.3, -4.199e-08
2308.3, -4.205e-08
2310.3, -4.311e-08
2312.3, -4.068e-08
2314.3, -4.207e-08
2316.3, -3.772e-08
2318.3, -3.844e-08
2320.3, -4.095e-08
2322.3, -3.441e-08
2324.3, -4.001e-08
2326.3, -3.865e-08
2328.3, -3.802e-08
2330.3, -3.976e-08
2332.3, -3.852e-08
2334.3, -3.979e-08
2336.3, -3.739e-08
2338.3, -3.787e-08
2340.3, -3.891e-08
2342.3, -3.649e-08
2344.3, -4.054e-08
2346.3, -3.461e-08
2348.3, -3.889e-08
2350.3, -3.801e-08
2352.3, -4.045e-08
2354.4, -3.676e-08
2356.4, -3.97e-08
2358.4, -4.376e-08
2360.4, -4.558e-08
2362.4, -4.133e-08
2364.4, -4.229e-08
2366.4, -4.165e-08
2368.4, -3.964e-08
2370.4, -3.891e-08
2372.4, -3.935e-08
2374.4, -4.022e-08
2376.4, -3.826e-08
2378.4, -3.728e-08
2380.4, -3.954e-08
2382.4, -3.566e-08
2384.4, -4.098e-08
2386.4, -3.715e-08
2388.4, -3.187e-08
2390.4, -3.445e-08
2392.4, -3.769e-08
2394.4, -3.884e-08
2396.4, -3.978e-08
2398.4, -3.824e-08
2400.4, -3.751e-08
2402.4, -3.419e-08
2404.4, -3.787e-08
2406.4, -3.867e-08
2408.4, -3.509e-08
2410.4, -3.741e-08
2412.4, -3.769e-08
2414.4, -3.665e-08
2416.4, -3.914e-08
2418.4, -3.696e-08
2420.4, -3.976e-08
2422.4, -3.897e-08
2424.4, -4.129e-08
2426.4, -4.096e-08
2428.4, -3.863e-08
2430.4, -3.697e-08
2432.4, -3.551e-08
2434.4, -4.006e-08
2436.4, -3.654e-08
2438.4, -3.74e-08
2440.4, -3.518e-08
2442.4, -3.791e-08
2444.4, -3.952e-08
2446.4, -3.878e-08
2448.4, -4.002e-08
2450.4, -3.772e-08
2452.4, -3.623e-08
2454.5, -3.606e-08
2456.5, -3.765e-08
2458.5, -3.857e-08
2460.5, -3.632e-08
2462.5, -3.623e-08
2464.5, -3.523e-08
2466.5, -4.136e-08
2468.5, -3.935e-08
2470.5, -3.873e-08
2472.5, -3.738e-08
2474.5, -3.409e-08
2476.5, -3.742e-08
2478.5, -3.719e-08
2480.5, -3.739e-08
2482.5, -3.656e-08
2484.5, -3.518e-08
2486.5, -3.639e-08
2488.5, -3.533e-08
2490.5, -3.942e-08
2492.5, -3.497e-08
2494.5, -4.397e-08
2496.5, -4.243e-08
2498.5, -3.808e-08
2500.5, -3.759e-08
2502.5, -3.571e-08
2504.5, -3.593e-08
2506.5, -3.597e-08
2508.5, -3.956e-08
2510.5, -3.659e-08
2512.5, -3.998e-08
2514.5, -3.586e-08
2516.5, -3.448e-08
2518.5, -3.357e-08
2520.5, -3.518e-08
2522.5, -3.712e-08
2524.5, -4.051e-08
2526.5, -3.764e-08
2528.5, -3.268e-08
2530.5, -3.616e-08
2532.5, -3.479e-08
2534.5, -3.909e-08
2536.5, -4.018e-08
2538.5, -3.785e-08
2540.5, -3.817e-08
2542.5, -3.612e-08
2544.5, -3.889e-08
2546.5, -4.365e-08
2548.5, -3.723e-08
2550.5, -3.676e-08
2552.5, -3.83e-08
2554.6, -4.116e-08
2556.6, -3.604e-08
2558.6, -3.574e-08
2560.6, -3.686e-08
2562.6, -4.168e-08
2564.6, -3.762e-08
2566.6, -3.92e-08
2568.6, -3.634e-08
2570.6, -3.478e-08
2572.6, -3.565e-08
2574.6, -3.832e-08
2576.6, -3.885e-08
2578.6, -3.601e-08
2580.6, -3.577e-08
2582.6, -3.714e-08
2584.6, -3.937e-08
2586.6, -4.251e-08
2588.6, -3.976e-08
2590.6, -4.022e-08
2592.6, -3.567e-08
2594.6, -3.771e-08
2596.6, -3.635e-08
2598.6, -3.714e-08
2600.6, -3.443e-08
2602.6, -3.878e-08
2604.6, -4.323e-08
2606.6, -3.69e-08
2608.6, -3.457e-08
2610.6, -3.807e-08
2612.6, -3.613e-08
2614.6, -3.811e-08
2616.6, -3.862e-08
2618.6, -3.528e-08
2620.6, -3.964e-08
2622.6, -4.281e-08
2624.6, -4.07e-08
2626.6, -4.223e-08
2628.6, -4.132e-08
2630.6, -4.027e-08
2632.6, -3.865e-08
2634.6, -3.587e-08
2636.6, -4.126e-08
2638.6, -3.845e-08
2640.6, -4.104e-08
2642.6, -4.326e-08
2644.6, -4.116e-08
2646.6, -4.112e-08
2648.6, -4.159e-08
2650.6, -4.182e-08
2652.6, -4.039e-08
2654.7, -3.853e-08
2656.7, -3.635e-08
2658.7, -4.329e-08
2660.7, -4.208e-08
2662.7, -4.056e-08
2664.7, -4.153e-08
2666.7, -3.865e-08
2668.7, -4.083e-08
2670.7, -4.053e-08
2672.7, -4.21e-08
2674.7, -4.114e-08
2676.7, -3.94e-08
2678.7, -3.962e-08
2680.7, -3.677e-08
2682.7, -3.84e-08
2684.7, -3.83e-08
2686.7, -3.907e-08
2688.7, -3.572e-08
2690.7, -3.54e-08
2692.7, -3.624e-08
2694.7, -3.925e-08
2696.7, -3.8e-08
2698.7, -3.672e-08
2700.7, -3.927e-08
2702.7, -3.611e-08
2704.7, -3.822e-08
2706.7, -3.799e-08
2708.7, -3.877e-08
2710.7, -3.869e-08
2712.7, -4.076e-08
2714.7, -4.105e-08
2716.7, -4.198e-08
2718.7, -4.079e-08
2720.7, -3.993e-08
2722.7, -3.981e-08
2724.7, -3.752e-08
2726.7, -4.243e-08
2728.7, -3.679e-08
2730.7, -4.265e-08
2732.7, -4.224e-08
2734.7, -4.113e-08
2736.7, -4.23e-08
2738.7, -3.992e-08
2740.7, -4.109e-08
2742.7, -3.939e-08
2744.7, -3.915e-08
2746.7, -3.986e-08
2748.7, -4.157e-08
2750.7, -4.047e-08
2752.7, -4.562e-08
2754.8, -4.119e-08
2756.8, -4.159e-08
2758.8, -3.709e-08
2760.8, -4.103e-08
2762.8, -4.157e-08
2764.8, -4.132e-08
2766.8, -4.271e-08
2768.8, -4.031e-08
2770.8, -4.26e-08
2772.8, -4.187e-08
2774.8, -4.092e-08
2776.8, -4.191e-08
2778.8, -4.078e-08
2780.8, -3.842e-08
2782.8, -4.024e-08
2784.8, -4.098e-08
2786.8, -3.898e-08
2788.8, -4.003e-08
2790.8, -3.564e-08
2792.8, -3.827e-08
2794.8, -3.863e-08
2796.8, -3.938e-08
2798.8, -4.236e-08
2800.8, -3.886e-08
2802.8, -4.164e-08
2804.8, -4.225e-08
2806.8, -4.109e-08
2808.8, -3.927e-08
2810.8, -3.808e-08
2812.8, -4.156e-08
2814.8, -4.106e-08
2816.8, -4.059e-08
2818.8, -4.243e-08
2820.8, -4.384e-08
2822.8, -4.356e-08
2824.8, -4.473e-08
2826.8, -4.667e-08
2828.8, -4.322e-08
2830.8, -4.767e-08
2832.8, -4.524e-08
2834.8, -4.282e-08
2836.8, -4.228e-08
2838.8, -3.981e-08
2840.8, -3.994e-08
2842.8, -4.227e-08
2844.8, -3.838e-08
2846.8, -3.886e-08
2848.8, -4.077e-08
2850.8, -4.018e-08
2852.8, -4.056e-08
2854.9, -4.147e-08
2856.9, -4.273e-08
2858.9, -4.545e-08
2860.9, -4.074e-08
2862.9, -4.192e-08
2864.9, -4.487e-08
2866.9, -4.563e-08
2868.9, -4.503e-08
2870.9, -4.197e-08
2872.9, -4.52e-08
2874.9, -4.409e-08
2876.9, -4.389e-08
2878.9, -4.488e-08
2880.9, -3.927e-08
2882.9, -4.553e-08
2884.9, -4.601e-08
2886.9, -4.144e-08
2888.9, -4.086e-08
2890.9, -4.176e-08
2892.9, -4.309e-08
2894.9, -4.167e-08
2896.9, -4.491e-08
2898.9, -4.167e-08
2900.9, -4.111e-08
2902.9, -3.773e-08
2904.9, -4.158e-08
2906.9, -4.248e-08
2908.9, -3.932e-08
2910.9, -4.142e-08
2912.9, -4.268e-08
2914.9, -4.144e-08
2916.9, -4.042e-08
2918.9, -4.013e-08
2920.9, -4.141e-08
2922.9, -3.913e-08
2924.9, -4.258e-08
2926.9, -3.957e-08
2928.9, -4.331e-08
2930.9, -3.959e-08
2932.9, -3.938e-08
2934.9, -3.894e-08
2936.9, -3.912e-08
2938.9, -3.797e-08
2940.9, -4.007e-08
2942.9, -3.944e-08
2944.9, -3.339e-08
2946.9, -3.781e-08
2948.9, -3.763e-08
2950.9, -4.19e-08
2952.9, -3.813e-08
2955.0, -3.651e-08
2957.0, -4.163e-08
2959.0, -3.953e-08
2961.0, -3.997e-08
2963.0, -3.894e-08
2965.0, -4.043e-08
2967.0, -4.141e-08
2969.0, -4.249e-08
2971.0, -3.766e-08
2973.0, -4.327e-08
2975.0, -4.146e-08
2977.0, -4.19e-08
2979.0, -4.078e-08
2981.0, -4.158e-08
2983.0, -4.122e-08
2985.0, -3.811e-08
2987.0, -3.651e-08
2989.0, -3.666e-08
2991.0, -3.959e-08
2993.0, -3.803e-08
2995.0, -3.51e-08
2997.0, -4.021e-08
2999.0, -4.088e-08
3001.0, -4.009e-08
3003.0, -3.981e-08
3005.0, -3.911e-08
3007.0, -3.993e-08
3009.0, -3.848e-08
3011.0, -3.677e-08
3013.0, -3.634e-08
3015.0, -4.029e-08
3017.0, -4.396e-08
3019.0, -4.247e-08
3021.0, -3.995e-08
3023.0, -3.634e-08
3025.0, -3.72e-08
3027.0, -4.257e-08
3029.0, -4.248e-08
3031.0, -4.017e-08
3033.0, -4.404e-08
3035.0, -4.247e-08
3037.0, -3.964e-08
3039.0, -4.299e-08
3041.0, -3.628e-08
3043.0, -4.128e-08
3045.0, -3.923e-08
3047.0, -4.166e-08
3049.0, -3.837e-08
3051.0, -4.028e-08
3053.0, -4.271e-08
3055.1, -4.047e-08
3057.1, -4.004e-08
3059.1, -4.366e-08
3061.1, -4.019e-08
3063.1, -4.524e-08
3065.1, -4.504e-08
3067.1, -4.341e-08
3069.1, -4.267e-08
3071.1, -4.272e-08
3073.1, -4.255e-08
3075.1, -4.51e-08
3077.1, -4.447e-08
3079.1, -4.347e-08
3081.1, -4.349e-08
3083.1, -3.949e-08
3085.1, -3.954e-08
3087.1, -3.905e-08
3089.1, -4.246e-08
3091.1, -4.013e-08
3093.1, -4.073e-08
3095.1, -3.836e-08
3097.1, -3.996e-08
3099.1, -4.117e-08
3101.1, -4.012e-08
3103.1, -4.231e-08
3105.1, -4.365e-08
3107.1, -4.014e-08
3109.1, -4.217e-08
3111.1, -3.928e-08
3113.1, -3.932e-08
3115.1, 2.1508e-06
3117.1, 4.335e-06
3119.1, 4.6047e-06
3121.1, 3.7831e-06
3123.1, 4.1079e-06
3125.1, 4.0412e-06
3127.1, 4.4415e-06
3129.1, 4.3372e-06
3131.1, 4.63e-06
3133.1, 4.483e-06
3135.1, 4.1521e-06
3137.1, 4.2956e-06
3139.1, 4.1523e-06
3141.1, 4.3613e-06
3143.1, 4.4422e-06
3145.1, 3.7128e-06
3147.1, 4.2025e-06
3149.1, 4.1562e-06
3151.1, 4.0957e-06
3153.1, 4.2361e-06
3155.2, 4.2066e-06
3157.2, 4.5407e-06
3159.2, 4.3597e-06
3161.2, 4.5152e-06
3163.2, 4.4169e-06
3165.2, 4.5488e-06
3167.2, 4.3428e-06
3169.2, 4.3599e-06
3171.2, 4.3096e-06
3173.2, 4.4214e-06
3175.2, 4.1664e-06
3177.2, 4.005e-06
3179.2, 4.3348e-06
3181.2, 4.351e-06
3183.2, 4.4875e-06
3185.2, 4.2627e-06
3187.2, 4.2148e-06
3189.2, 4.4172e-06
3191.2, 4.234e-06
3193.2, 4.4758e-06
3195.2, 4.3533e-06
3197.2, 4.5732e-06
3199.2, 4.4885e-06
3201.2, 4.5998e-06
3203.2, 4.4159e-06
3205.2, 4.3017e-06
3207.2, 4.2205e-06
3209.2, 4.4843e-06
3211.2, 4.0502e-06
3213.2, 4.1808e-06
3215.2, 4.3363e-06
3217.2, 4.5188e-06
3219.2, 4.5922e-06
3221.2, 4.4837e-06
3223.2, 4.6339e-06
3225.2, 4.4251e-06
3227.2, 4.3514e-06
3229.2, 4.3804e-06
3231.2, 4.6847e-06
3233.2, 4.6399e-06
3235.2, 4.1361e-06
3237.2, 4.4579e-06
3239.2, 4.542e-06
3241.2, 4.5125e-06
3243.2, 4.5033e-06
3245.2, 4.0317e-06
3247.2, 4.6068e-06
3249.2, 4.2389e-06
3251.2, 4.3547e-06
3253.2, 4.215e-06
3255.3, 4.4209e-06
3257.3, 4.5496e-06
3259.3, 4.3195e-06
3261.3, 4.4581e-06
3263.3, 4.7449e-06
3265.3, 4.5927e-06
3267.3, 4.7945e-06
3269.3, 4.3667e-06
3271.3, 4.2747e-06
3273.3, 4.64e-06
3275.3, 4.5615e-06
3277.3, 4.588e-06
3279.3, 3.928e-06
3281.3, 4.4553e-06
3283.3, 4.5481e-06
3285.3, 4.3424e-06
3287.3, 4.21e-06
3289.3, 4.5981e-06
3291.3, 4.5402e-06
3293.3, 4.5523e-06
3295.3, 4.1568e-06
3297.3, 4.4264e-06
3299.3, 4.7617e-06
3301.3, 4.7996e-06
3303.3, 4.531e-06
3305.3, 4.6351e-06
3307.3, 4.42e-06
3309.3, 4.5277e-06
3311.3, 4.5242e-06
3313.3, 4.4356e-06
3315.3, 4.1463e-06
3317.3, 4.3096e-06
3319.3, 4.261e-06
3321.3, 4.4826e-06
3323.3, 4.607e-06
3325.3, 4.7222e-06
3327.3, 4.7847e-06
3329.3, 4.5027e-06
3331.3, 4.3628e-06
3333.3, 4.3071e-06
3335.3, 4.1471e-06
3337.3, 4.5045e-06
3339.3, 4.5878e-06
3341.3, 4.5569e-06
3343.3, 4.1009e-06
3345.3, 4.4725e-06
3347.3, 3.9278e-06
3349.3, 4.6542e-06
3351.3, 4.4926e-06
3353.3, 4.6556e-06
3355.4, 4.6368e-06
3357.4, 4.3954e-06
3359.4, 4.1799e-06
3361.4, 4.2942e-06
3363.4, 4.5305e-06
3365.4, 4.5194e-06
3367.4, 4.584e-06
3369.4, 4.4793e-06
3371.4, 4.7477e-06
3373.4, 4.28e-06
3375.4, 3.8051e-06
3377.4, 4.7831e-06
3379.4, 4.3882e-06
3381.4, 3.8513e-06
3383.4, 4.5643e-06
3385.4, 4.6496e-06
3387.4, 4.0609e-06
3389.4, 4.3981e-06
3391.4, 4.7842e-06
3393.4, 4.546e-06
3395.4, 4.5554e-06
3397.4, 4.3026e-06
3399.4, 4.5329e-06
3401.4, 4.6824e-06
3403.4, 4.4137e-06
3405.4, 4.6997e-06
3407.4, 4.3549e-06
3409.4, 4.5467e-06
3411.4, 4.5902e-06
3413.4, 4.622e-06
3415.4, 4.683e-06
3417.4, 4.6854e-06
3419.4, 4.8607e-06
3421.4, 4.5855e-06
3423.4, 4.4615e-06
3425.4, 4.6344e-06
3427.4, 4.3212e-06
3429.4, 4.3259e-06
3431.4, 4.4157e-06
3433.4, 4.5151e-06
3435.4, 4.5952e-06
3437.4, 4.6599e-06
3439.4, 4.6367e-06
3441.4, 4.4698e-06
3443.4, 4.4507e-06
3445.4, 4.4307e-06
3447.4, 4.5212e-06
3449.4, 4.4928e-06
3451.4, 4.1174e-06
3453.4, 4.5871e-06
3455.5, 4.478e-06
3457.5, 4.3071e-06
3459.5, 4.3057e-06
3461.5, 4.3717e-06
3463.5, 4.2942e-06
3465.5, 4.6992e-06
3467.5, 4.7453e-06
3469.5, 4.6913e-06
3471.5, 4.5464e-06
3473.5, 4.7087e-06
3475.5, 4.3134e-06
3477.5, 4.3747e-06
3479.5, 4.6238e-06
3481.5, 4.3658e-06
3483.5, 4.4391e-06
3485.5, 4.3291e-06
3487.5, 4.3669e-06
3489.5, 4.533e-06
3491.5, 4.1042e-06
3493.5, 4.7088e-06
3495.5, 4.3922e-06
3497.5, 4.4866e-06
3499.5, 4.5699e-06
3501.5, 4.6755e-06
3503.5, 4.3666e-06
3505.5, 4.6782e-06
3507.5, 4.7549e-06
3509.5, 4.6101e-06
3511.5, 4.2443e-06
3513.5, 4.8046e-06
3515.5, 4.5171e-06
3517.5, 4.4522e-06
3519.5, 4.5308e-06
3521.5, 4.2881e-06
3523.5, 4.4121e-06
3525.5, 4.2182e-06
3527.5, 4.4882e-06
3529.5, 4.5269e-06
3531.5, 4.5119e-06
3533.5, 4.8888e-06
3535.5, 4.6474e-06
3537.5, 4.5393e-06
3539.5, 4.5835e-06
3541.5, 4.5829e-06
3543.5, 4.3941e-06
3545.5, 4.4977e-06
3547.5, 4.4587e-06
3549.5, 4.1743e-06
3551.5, 4.5806e-06
3553.5, 4.6324e-06
3555.6, 4.0728e-06
3557.6, 4.623e-06
3559.6, 4.5658e-06
3561.6, 4.6245e-06
3563.6, 4.6503e-06
3565.6, 4.2904e-06
3567.6, 4.5125e-06
3569.6, 4.7708e-06
3571.6, 4.3135e-06
3573.6, 4.3769e-06
3575.6, 4.4576e-06
3577.6, 4.6139e-06
3579.6, 4.5115e-06
3581.6, 4.4784e-06
3583.6, 4.499e-06
3585.6, 4.5507e-06
3587.6, 4.5125e-06
3589.6, 4.5961e-06
3591.6, 4.8312e-06
3593.6, 4.4648e-06
3595.6, 4.3596e-06
3597.6, 4.6422e-06
3599.6, 4.0804e-06
3601.6, 4.5538e-06
3603.6, 4.5913e-06
3605.6, 4.5195e-06
3607.6, 4.9079e-06
3609.6, 4.3153e-06
3611.6, 4.4573e-06
3613.6, 4.4491e-06
3615.6, 4.7855e-06
3617.6, 4.4827e-06
3619.6, 4.8066e-06
3621.6, 4.4603e-06
3623.6, 4.7129e-06
3625.6, 4.5933e-06
3627.6, 4.7113e-06
3629.6, 4.1737e-06
3631.6, 4.326e-06
3633.6, 4.3045e-06
3635.6, 4.7468e-06
3637.6, 4.6029e-06
3639.6, 4.2561e-06
3641.6, 4.6126e-06
3643.6, 4.5447e-06
3645.6, 4.3729e-06
3647.6, 4.5662e-06
3649.6, 4.3818e-06
3651.6, 4.8968e-06
3653.6, 4.6972e-06
3655.7, 4.55e-06
3657.7, 4.4898e-06
3659.7, 4.7727e-06
3661.7, 4.5305e-06
3663.7, 4.4607e-06
3665.7, 4.7093e-06
3667.7, 4.5579e-06
3669.7, 4.7982e-06
3671.7, 4.8638e-06
3673.7, 4.672e-06
3675.7, 4.249e-06
3677.7, 4.4776e-06
3679.7, 4.506e-06
3681.7, 4.417e-06
3683.7, 4.6643e-06
3685.7, 4.5399e-06
3687.7, 4.4936e-06
3689.7, 4.5977e-06
3691.7, 4.8122e-06
3693.7, 4.4747e-06
3695.7, 4.8159e-06
3697.7, 4.5009e-06
3699.7, 3.8922e-06
3701.7, 4.5664e-06
3703.7, 4.6358e-06
3705.7, 4.4941e-06
3707.7, 4.4701e-06
3709.7, 4.581e-06
3711.7, 4.6856e-06
3713.7, 4.3842e-06
3715.7, 4.8635e-06
3717.7, 4.4323e-06
3719.7, 4.5788e-06
3721.7, 4.4729e-06
3723.7, 4.6369e-06
3725.7, 4.6784e-06
3727.7, 4.6771e-06
3729.7, 4.5073e-06
3731.7, 4.4289e-06
3733.7, 4.773e-06
3735.7, 4.7229e-06
3737.7, 4.5881e-06
3739.7, 4.8321e-06
3741.7, 4.37e-06
3743.7, 4.4367e-06
3745.7, 4.5841e-06
3747.7, 4.8255e-06
3749.7, 4.6116e-06
3751.7, 4.3183e-06
3753.7, 4.6006e-06
3755.8, 4.6333e-06
3757.8, 4.5505e-06
3759.8, 4.6359e-06
3761.8, 4.6854e-06
3763.8, 4.6461e-06
3765.8, 4.4402e-06
3767.8, 4.4879e-06
3769.8, 4.2775e-06
3771.8, 4.5769e-06
3773.8, 4.4709e-06
3775.8, 4.5908e-06
3777.8, 4.6274e-06
3779.8, 4.3071e-06
3781.8, 4.7042e-06
3783.8, 4.6971e-06
3785.8, 4.6506e-06
3787.8, 4.5849e-06
3789.8, 4.4676e-06
3791.8, 4.4081e-06
3793.8, 4.6613e-06
3795.8, 4.5461e-06
3797.8, 4.2112e-06
3799.8, 4.6528e-06
3801.8, 4.5418e-06
3803.8, 4.8198e-06
3805.8, 4.6253e-06
3807.8, 4.6652e-06
3809.8, 4.2337e-06
3811.8, 4.7824e-06
3813.8, 4.7688e-06
3815.8, 4.381e-06
3817.8, 4.8278e-06
3819.8, 4.5792e-06
3821.8, 4.5491e-06
3823.8, 4.4486e-06
3825.8, 4.9048e-06
3827.8, 4.6124e-06
3829.8, 4.6924e-06
3831.8, 4.5311e-06
3833.8, 4.4948e-06
3835.8, 4.6638e-06
3837.8, 4.5505e-06
3839.8, 4.6209e-06
3841.8, 4.7768e-06
3843.8, 4.3935e-06
3845.8, 4.6627e-06
3847.8, 4.6906e-06
3849.8, 4.0287e-06
3851.8, 4.3456e-06
3853.8, 4.743e-06
3855.9, 4.5322e-06
3857.9, 4.513e-06
3859.9, 4.4571e-06
3861.9, 4.3652e-06
3863.9, 4.537e-06
3865.9, 4.5307e-06
3867.9, 4.8541e-06
3869.9, 4.514e-06
3871.9, 4.7382e-06
3873.9, 4.5774e-06
3875.9, 4.6711e-06
3877.9, 4.5017e-06
3879.9, 4.5866e-06
3881.9, 4.6511e-06
3883.9, 4.4862e-06
3885.9, 4.7557e-06
3887.9, 4.382e-06
3889.9, 4.4788e-06
3891.9, 4.4106e-06
3893.9, 4.3391e-06
3895.9, 4.7204e-06
3897.9, 4.5006e-06
3899.9, 4.3235e-06
3901.9, 4.6124e-06
3903.9, 4.5055e-06
3905.9, 4.5541e-06
3907.9, 4.7121e-06
3909.9, 4.674e-06
3911.9, 4.5143e-06
3913.9, 4.2101e-06
3915.9, 4.5389e-06
3917.9, 4.784e-06
3919.9, 4.3347e-06
3921.9, 4.3243e-06
3923.9, 4.6492e-06
3925.9, 4.4553e-06
3927.9, 4.6375e-06
3929.9, 4.4786e-06
3931.9, 4.3919e-06
3933.9, 4.6147e-06
3935.9, 4.5706e-06
3937.9, 4.6095e-06
3939.9, 4.4654e-06
3941.9, 4.479e-06
3943.9, 4.4137e-06
3945.9, 4.6182e-06
3947.9, 4.4194e-06
3949.9, 4.7024e-06
3951.9, 4.5884e-06
3953.9, 4.5129e-06
3956.0, 4.9316e-06
3958.0, 4.8232e-06
3960.0, 4.7097e-06
3962.0, 4.7092e-06
3964.0, 4.7935e-06
3966.0, 4.7964e-06
3968.0, 4.417e-06
3970.0, 4.5966e-06
3972.0, 4.6608e-06
3974.0, 4.77e-06
3976.0, 4.7648e-06
3978.0, 4.5785e-06
3980.0, 4.4939e-06
3982.0, 4.4519e-06
3984.0, 4.3233e-06
3986.0, 4.7722e-06
3988.0, 4.6355e-06
3990.0, 4.5149e-06
3992.0, 4.5321e-06
3994.0, 4.7054e-06
3996.0, 4.7142e-06
3998.0, 4.38e-06
4000.0, 4.7509e-06
4002.0, 4.4952e-06
4004.0, 4.4932e-06
4006.0, 4.5248e-06
4008.0, 4.4704e-06
4010.0, 4.5627e-06
4012.0, 4.6097e-06
4014.0, 4.3101e-06
4016.0, 4.4623e-06
4018.0, 4.6747e-06
4020.0, 4.1693e-06
4022.0, 4.5342e-06
4024.0, 4.5957e-06
4026.0, 4.2238e-06
4028.0, 4.5598e-06
4030.0, 4.6733e-06
4032.0, 4.5078e-06
4034.0, 4.4193e-06
4036.0, 4.4589e-06
4038.0, 4.3892e-06
4040.0, 4.4672e-06
4042.0, 4.5357e-06
4044.0, 4.6134e-06
4046.0, 4.5565e-06
4048.0, 4.4778e-06
4050.0, 4.3832e-06
4052.0, 4.6276e-06
4054.0, 4.6429e-06
4056.1, 4.2804e-06
4058.1, 4.7051e-06
4060.1, 4.4325e-06
4062.1, 4.622e-06
4064.1, 4.4135e-06
4066.1, 4.5953e-06
4068.1, 4.3021e-06
4070.1, 4.5077e-06
4072.1, 4.4668e-06
4074.1, 4.4906e-06
4076.1, 4.7045e-06
4078.1, 4.6241e-06
4080.1, 4.5986e-06
4082.1, 4.6371e-06
4084.1, 4.7068e-06
4086.1, 4.2543e-06
4088.1, 4.611e-06
4090.1, 4.5929e-06
4092.1, 4.4852e-06
4094.1, 4.6688e-06
4096.1, 4.4772e-06
4098.1, 4.4133e-06
4100.1, 4.6409e-06
4102.1, 4.5748e-06
4104.1, 4.5958e-06
4106.1, 4.573e-06
4108.1, 4.5009e-06
4110.1, 4.5667e-06
4112.1, 4.5546e-06
4114.1, 4.3859e-06
4116.1, 2.3051e-06
4118.1, -3.465e-08
4120.1, -3.952e-08
4122.1, -3.991e-08
4124.1, -3.757e-08
4126.1, -4.222e-08
4128.1, -3.856e-08
4130.1, -3.95e-08
4132.1, -4.302e-08
4134.1, -4.191e-08
4136.1, -4.295e-08
4138.1, -4.302e-08
4140.1, -4.047e-08
4142.1, -3.887e-08
4144.1, -3.84e-08
4146.1, -3.679e-08
4148.1, -4.18e-08
4150.1, -3.843e-08
4152.1, -4.032e-08
4154.1, -3.649e-08
4156.2, -3.88e-08
4158.2, -3.358e-08
4160.2, -3.713e-08
4162.2, -3.588e-08
4164.2, -3.879e-08
4166.2, -3.96e-08
4168.2, -3.899e-08
4170.2, -3.723e-08
4172.2, -3.888e-08
4174.2, -3.943e-08
4176.2, -3.864e-08
4178.2, -4.037e-08
4180.2, -3.364e-08
4182.2, -3.58e-08
4184.2, -3.877e-08
4186.2, -4.008e-08
4188.2, -3.946e-08
4190.2, -4.444e-08
4192.2, -3.966e-08
4194.2, -4.061e-08
4196.2, -4.296e-08
4198.2, -3.944e-08
4200.2, -3.948e-08
4202.2, -3.792e-08
4204.2, -3.891e-08
4206.2, -3.973e-08
4208.2, -3.523e-08
4210.2, -3.94e-08
4212.2, -3.643e-08
4214.2, -3.976e-08
4216.2, -3.61e-08
4218.2, -3.868e-08
4220.2, -3.69e-08
4222.2, -3.473e-08
4224.2, -3.932e-08
4226.2, -3.878e-08
4228.2, -3.86e-08
4230.2, -4.014e-08
4232.2, -4.205e-08
4234.2, -4.071e-08
4236.2, -4.247e-08
4238.2, -3.929e-08
4240.2, -4.168e-08
4242.2, -4.243e-08
4244.2, -4.059e-08
4246.2, -3.801e-08
4248.2, -3.748e-08
4250.2, -3.616e-08
4252.2, -3.733e-08
4254.2, -3.813e-08
4256.3, -3.847e-08
4258.3, -3.909e-08
4260.3, -3.795e-08
4262.3, -3.845e-08
4264.3, -3.869e-08
4266.3, -3.978e-08
4268.3, -4.116e-08
4270.3, -4.142e-08
4272.3, -4.307e-08
4274.3, -4.437e-08
4276.3, -4.145e-08
4278.3, -4.342e-08
4280.3, -4.306e-08
4282.3, -4.442e-08
4284.3, -4.076e-08
4286.3, -3.93e-08
4288.3, -4.21e-08
4290.3, -3.911e-08
4292.3, -3.959e-08
4294.3, -3.783e-08
4296.3, -3.58e-08
4298.3, -3.727e-08
4300.3, -3.553e-08
4302.3, -3.664e-08
4304.3, -3.683e-08
4306.3, -3.473e-08
4308.3, -3.741e-08
4310.3, -3.779e-08
4312.3, -3.739e-08
4314.3, -4.066e-08
4316.3, -3.944e-08
4318.3, -3.772e-08
4320.3, -3.548e-08
4322.3, -3.166e-08
4324.3, -3.762e-08
4326.3, -3.402e-08
4328.3, -3.38e-08
4330.3, -3.761e-08
4332.3, -3.555e-08
4334.3, -3.701e-08
4336.3, -3.986e-08
4338.3, -3.976e-08
4340.3, -3.979e-08
4342.3, -3.997e-08
4344.3, -3.526e-08
4346.3, -3.663e-08
4348.3, -3.621e-08
4350.3, -3.498e-08
4352.3, -3.716e-08
4354.3, -3.93e-08
4356.4, -3.963e-08
4358.4, -4.036e-08
4360.4, -3.779e-08
4362.4, -4.002e-08
4364.4, -3.828e-08
4366.4, -3.928e-08
4368.4, -4.273e-08
4370.4, -4.038e-08
4372.4, -4.146e-08
4374.4, -3.953e-08
4376.4, -3.838e-08
4378.4, -3.637e-08
4380.4, -3.752e-08
4382.4, -3.895e-08
4384.4, -4.114e-08
4386.4, -3.899e-08
4388.4, -3.782e-08
4390.4, -3.643e-08
4392.4, -3.476e-08
4394.4, -3.814e-08
4396.4, -4.138e-08
4398.4, -3.703e-08
4400.4, -3.528e-08
4402.4, -3.846e-08
4404.4, -4.213e-08
4406.4, -4.046e-08
4408.4, -3.947e-08
4410.4, -4.188e-08
4412.4, -4.024e-08
4414.4, -4.135e-08
4416.4, -4.282e-08
4418.4, -3.964e-08
4420.4, -3.953e-08
4422.4, -4.06e-08
4424.4, -4.154e-08
4426.4, -4.415e-08
4428.4, -4.239e-08
4430.4, -3.95e-08
4432.4, -4.195e-08
4434.4, -4.436e-08
4436.4, -4.145e-08
4438.4, -4.27e-08
4440.4, -3.954e-08
4442.4, -4.097e-08
4444.4, -4.165e-08
4446.4, -4.192e-08
4448.4, -4.271e-08
4450.4, -4.259e-08
4452.4, -4.462e-08
4454.4, -4.312e-08
4456.5, -4.352e-08
4458.5, -3.93e-08
4460.5, -3.873e-08
4462.5, -3.76e-08
4464.5, -4.221e-08
4466.5, -4.208e-08
4468.5, -3.903e-08
4470.5, -4.233e-08
4472.5, -4.233e-08
4474.5, -4.478e-08
4476.5, -4.069e-08
4478.5, -3.86e-08
4480.5, -4.178e-08
4482.5, -3.899e-08
4484.5, -3.688e-08
4486.5, -3.858e-08
4488.5, -3.953e-08
4490.5, -3.662e-08
4492.5, -3.92e-08
4494.5, -3.978e-08
4496.5, -3.998e-08
4498.5, -3.747e-08
4500.5, -3.924e-08
4502.5, -3.732e-08
4504.5, -3.671e-08
4506.5, -3.755e-08
4508.5, -3.941e-08
4510.5, -4.034e-08
4512.5, -3.664e-08
4514.5, -3.723e-08
4516.5, -3.827e-08
4518.5, -3.677e-08
4520.5, -3.679e-08
4522.5, -3.873e-08
4524.5, -3.716e-08
4526.5, -4.048e-08
4528.5, -3.663e-08
4530.5, -3.658e-08
4532.5, -3.706e-08
4534.5, -3.744e-08
4536.5, -3.788e-08
4538.5, -3.642e-08
4540.5, -4.05e-08
4542.5, -3.461e-08
4544.5, -3.596e-08
4546.5, -3.819e-08
4548.5, -3.916e-08
4550.5, -3.997e-08
4552.5, -3.9e-08
4554.5, -3.598e-08
4556.6, -3.747e-08
4558.6, -3.501e-08
4560.6, -3.633e-08
4562.6, -4.101e-08
4564.6, -3.289e-08
4566.6, -3.896e-08
4568.6, -3.835e-08
4570.6, -3.731e-08
4572.6, -3.828e-08
4574.6, -3.72e-08
4576.6, -3.937e-08
4578.6, -3.613e-08
4580.6, -4.052e-08
4582.6, -3.957e-08
4584.6, -3.625e-08
4586.6, -3.752e-08
4588.6, -4.161e-08
4590.6, -3.906e-08
4592.6, -4.09e-08
4594.6, -4.091e-08
4596.6, -4.404e-08
4598.6, -3.914e-08
4600.6, -3.677e-08
4602.6, -3.745e-08
4604.6, -3.647e-08
4606.6, -4.011e-08
4608.6, -4.298e-08
4610.6, -3.586e-08
4612.6, -3.785e-08
4614.6, -4.045e-08
4616.6, -3.33e-08
4618.6, -3.593e-08
4620.6, -3.407e-08
4622.6, -3.485e-08
4624.6, -3.684e-08
4626.6, -3.774e-08
4628.6, -3.367e-08
4630.6, -3.691e-08
4632.6, -3.825e-08
4634.6, -3.909e-08
4636.6, -4.038e-08
4638.6, -4.036e-08
4640.6, -3.912e-08
4642.6, -3.673e-08
4644.6, -3.63e-08
4646.6, -3.95e-08
4648.6, -3.782e-08
4650.6, -3.945e-08
4652.6, -3.837e-08
4654.6, -3.912e-08
4656.7, -4.117e-08
4658.7, -3.713e-08
4660.7, -3.789e-08
4662.7, -3.832e-08
4664.7, -3.966e-08
4666.7, -4.021e-08
4668.7, -4.048e-08
4670.7, -3.878e-08
4672.7, -3.693e-08
4674.7, -4.02e-08
4676.7, -4.11e-08
4678.7, -4.103e-08
4680.7, -3.838e-08
4682.7, -3.875e-08
4684.7, -3.629e-08
4686.7, -3.83e-08
4688.7, -3.633e-08
4690.7, -3.719e-08
4692.7, -3.784e-08
4694.7, -3.839e-08
4696.7, -3.721e-08
4698.7, -3.709e-08
4700.7, -3.573e-08
4702.7, -3.765e-08
4704.7, -3.799e-08
4706.7, -3.935e-08
4708.7, -3.933e-08
4710.7, -3.689e-08
4712.7, -3.56e-08
4714.7, -4.021e-08
4716.7, -3.735e-08
4718.7, -3.844e-08
4720.7, -4.102e-08
4722.7, -4.243e-08
4724.7, -3.891e-08
4726.7, -3.3e-08
4728.7, -3.886e-08
4730.7, -4.096e-08
4732.7, -4.066e-08
4734.7, -3.918e-08
4736.7, -4.04e-08
4738.7, -3.758e-08
4740.7, -3.718e-08
4742.7, -4.018e-08
4744.7, -4.182e-08
4746.7, -4.202e-08
4748.7, -4.239e-08
4750.7, -3.894e-08
4752.7, -3.946e-08
4754.7, -4.209e-08
4756.8, -3.902e-08
4758.8, -4.006e-08
4760.8, -3.713e-08
4762.8, -3.73e-08
4764.8, -4.233e-08
4766.8, -3.942e-08
4768.8, -4.081e-08
4770.8, -3.717e-08
4772.8, -4.323e-08
4774.8, -4.12e-08
4776.8, -4.297e-08
4778.8, -4.469e-08
4780.8, -4.245e-08
4782.8, -4.505e-08
4784.8, -4.591e-08
4786.8, -4.591e-08
4788.8, -4.608e-08
4790.8, -4.552e-08
4792.8, -4.301e-08
4794.8, -4.579e-08
4796.8, -4.536e-08
4798.8, -4.305e-08
4800.8, -4.27e-08
4802.8, -4.246e-08
4804.8, -4.44e-08
4806.8, -4.383e-08
4808.8, -4.369e-08
4810.8, -3.755e-08
4812.8, -4.085e-08
4814.8, -3.963e-08
4816.8, -3.578e-08
4818.8, -3.68e-08
4820.8, -3.509e-08
4822.8, -3.598e-08
4824.8, -3.493e-08
4826.8, -4.128e-08
4828.8, -3.615e-08
4830.8, -4.023e-08
4832.8, -4.339e-08
4834.8, -4.112e-08
4836.8, -4.199e-08
4838.8, -3.937e-08
4840.8, -4.207e-08
4842.8, -3.68e-08
4844.8, -4.095e-08
4846.8, -4.357e-08
4848.8, -4.249e-08
4850.8, -4.254e-08
4852.8, -4.207e-08
4854.8, -4.383e-08
4856.9, -4.201e-08
4858.9, -4.073e-08
4860.9, -4.31e-08
4862.9, -4.469e-08
4864.9, -4.548e-08
4866.9, -4.455e-08
4868.9, -4.331e-08
4870.9, -4.061e-08
4872.9, -4.089e-08
4874.9, -4.623e-08
4876.9, -4.389e-08
4878.9, -4.877e-08
4880.9, -4.483e-08
4882.9, -4.45e-08
4884.9, -4.32e-08
4886.9, -4.317e-08
4888.9, -4.12e-08
4890.9, -4.121e-08
4892.9, -4.073e-08
4894.9, -3.994e-08
4896.9, -4.491e-08
4898.9, -4.228e-08
4900.9, -4.711e-08
4902.9, -4.498e-08
4904.9, -4.527e-08
4906.9, -4.279e-08
4908.9, -4.09e-08
4910.9, -4.462e-08
4912.9, -4.355e-08
4914.9, -4.029e-08
4916.9, -4.514e-08
4918.9, -4.267e-08
4920.9, -4.362e-08
4922.9, -4.448e-08
4924.9, -4.499e-08
4926.9, -4.597e-08
4928.9, -4.22e-08
4930.9, -4.291e-08
4932.9, -4.442e-08
4934.9, -4.284e-08
4936.9, -4.611e-08
4938.9, -4.471e-08
4940.9, -4.44e-08
4942.9, -4.496e-08
4944.9, -4.272e-08
4946.9, -4.44e-08
4948.9, -4.198e-08
4950.9, -4.669e-08
4952.9, -4.026e-08
4954.9, -4.925e-08
4957.0, -4.214e-08
4959.0, -4.108e-08
4961.0, -4.082e-08
4963.0, -3.757e-08
4965.0, -3.879e-08
4967.0, -4.277e-08
4969.0, -4.494e-08
4971.0, -4.056e-08
4973.0, -3.986e-08
4975.0, -3.992e-08
4977.0, -4.058e-08
4979.0, -4.146e-08
4981.0, -3.803e-08
4983.0, -4.427e-08
4985.0, -4.414e-08
4987.0, -4.503e-08
4989.0, -4.203e-08
4991.0, -3.901e-08
4993.0, -4.184e-08
4995.0, -3.963e-08
4997.0, -4.303e-08
4999.0, -4.298e-08
5001.0, -4.108e-08
5003.0, -4.293e-08
5005.0, -4.454e-08
5007.0, -4.23e-08
5009.0, -4.388e-08
5011.0, -4.226e-08
5013.0, -4.44e-08
5015.0, -4.046e-08
5017.0, -4.139e-08
5019.0, -4.162e-08
5021.0, -4.054e-08
5023.0, -4.088e-08
5025.0, -4.105e-08
5027.0, -4.246e-08
5029.0, -4.243e-08
5031.0, -4.111e-08
5033.0, -3.71e-08
5035.0, -4.364e-08
5037.0, -4.236e-08
5039.0, -4.503e-08
5041.0, -4.775e-08
5043.0, -4.374e-08
5045.0, -4.584e-08
5047.0, -4.327e-08
5049.0, -4.494e-08
5051.0, -4.026e-08
5053.0, -4.336e-08
5055.0, -4.16e-08
5057.1, -4.247e-08
5059.1, -4.429e-08
5061.1, -3.87e-08
5063.1, -4.329e-08
5065.1, -4.177e-08
5067.1, -3.792e-08
5069.1, -4.245e-08
5071.1, -3.841e-08
5073.1, -3.931e-08
5075.1, -4.395e-08
5077.1, -4.074e-08
5079.1, -4.145e-08
5081.1, -4.065e-08
5083.1, -4.197e-08
5085.1, -4.318e-08
5087.1, -4.084e-08
5089.1, -3.981e-08
5091.1, -3.954e-08
5093.1, -3.993e-08
5095.1, -4.487e-08
5097.1, -4.166e-08
5099.1, -4.331e-08
5101.1, -4.332e-08
5103.1, -4.492e-08
5105.1, -4.808e-08
5107.1, -4.789e-08
5109.1, -5.044e-08
5111.1, -4.516e-08
5113.1, -4.615e-08
5115.1, -4.384e-08
5117.1, -4.296e-08
5119.1, -4.552e-08
5121.1, -4.236e-08
5123.1, -4.32e-08
5125.1, -4.505e-08
5127.1, -4.345e-08
5129.1, -3.952e-08
5131.1, -4.116e-08
5133.1, -3.628e-08
5135.1, -3.696e-08
5137.1, -3.845e-08
5139.1, -4.058e-08
5141.1, -4.335e-08
5143.1, -4.203e-08
5145.1, -4.27e-08
5147.1, -4.431e-08
5149.1, -4.186e-08
5151.1, -4.401e-08
5153.1, -3.911e-08
5155.1, -4.372e-08
5157.2, -3.719e-08
5159.2, -3.973e-08
5161.2, -3.749e-08
5163.2, -4.181e-08
5165.2, -4.126e-08
5167.2, -4.166e-08
5169.2, -4.416e-08
5171.2, -4.262e-08
5173.2, -4.311e-08
5175.2, -3.973e-08
5177.2, 2.2782e-06
5179.2, 4.2304e-06
5181.2, 4.4001e-06
5183.2, 4.3606e-06
5185.2, 4.3529e-06
5187.2, 4.3619e-06
5189.2, 4.5513e-06
5191.2, 4.3953e-06
5193.2, 4.3396e-06
5195.2, 4.5528e-06
5197.2, 4.357e-06
5199.2, 3.9415e-06
5201.2, 4.4684e-06
5203.2, 4.1572e-06
5205.2, 4.3816e-06
5207.2, 4.2753e-06
5209.2, 4.01e-06
5211.2, 4.4437e-06
5213.2, 4.06e-06
5215.2, 4.5386e-06
5217.2, 4.4864e-06
5219.2, 4.4517e-06
5221.2, 4.7301e-06
5223.2, 4.4965e-06
5225.2, 4.1627e-06
5227.2, 4.3314e-06
5229.2, 4.1694e-06
5231.2, 4.4659e-06
5233.2, 4.683e-06
5235.2, 4.2572e-06
5237.2, 4.5842e-06
5239.2, 4.1972e-06
5241.2, 4.2275e-06
5243.2, 3.7099e-06
5245.2, 4.3729e-06
5247.2, 4.2153e-06
5249.2, 4.3394e-06
5251.2, 4.6507e-06
5253.2, 4.5853e-06
5255.2, 4.1649e-06
5257.3, 4.181e-06
5259.3, 4.3152e-06
5261.3, 4.3994e-06
5263.3, 4.3003e-06
5265.3, 4.2663e-06
5267.3, 4.3549e-06
5269.3, 4.7099e-06
5271.3, 4.3799e-06
5273.3, 4.0184e-06
5275.3, 4.6013e-06
5277.3, 4.2362e-06
5279.3, 4.5316e-06
5281.3, 4.3809e-06
5283.3, 4.5411e-06
5285.3, 4.4197e-06
5287.3, 4.4504e-06
5289.3, 4.131e-06
5291.3, 4.6109e-06
5293.3, 4.7283e-06
5295.3, 4.6812e-06
5297.3, 4.3169e-06
5299.3, 4.5145e-06
5301.3, 4.6496e-06
5303.3, 4.7864e-06
5305.3, 4.2789e-06
5307.3, 4.6598e-06
5309.3, 4.5077e-06
5311.3, 4.5584e-06
5313.3, 4.7837e-06
5315.3, 4.4518e-06
5317.3, 4.356e-06
5319.3, 4.5657e-06
5321.3, 4.2255e-06
5323.3, 4.6497e-06
5325.3, 4.7402e-06
5327.3, 4.4017e-06
5329.3, 4.1262e-06
5331.3, 4.7123e-06
5333.3, 4.305e-06
5335.3, 4.363e-06
5337.3, 4.4339e-06
5339.3, 4.302e-06
5341.3, 4.7003e-06
5343.3, 4.3074e-06
5345.3, 4.5635e-06
5347.3, 4.5033e-06
5349.3, 4.0146e-06
5351.3, 4.5316e-06
5353.3, 4.3947e-06
5355.3, 4.4129e-06
5357.4, 4.1035e-06
5359.4, 4.762e-06
5361.4, 4.7172e-06
5363.4, 4.3894e-06
5365.4, 4.7587e-06
5367.4, 4.4328e-06
5369.4, 4.4594e-06
5371.4, 4.5692e-06
5373.4, 4.6141e-06
5375.4, 4.5419e-06
5377.4, 4.8388e-06
5379.4, 4.1439e-06
5381.4, 4.6581e-06
5383.4, 4.6208e-06
5385.4, 4.6351e-06
5387.4, 4.7257e-06
5389.4, 4.2489e-06
5391.4, 4.6657e-06
5393.4, 4.5233e-06
5395.4, 4.4906e-06
5397.4, 4.6462e-06
5399.4, 4.5385e-06
5401.4, 4.7607e-06
5403.4, 4.5231e-06
5405.4, 4.4004e-06
5407.4, 4.6474e-06
5409.4, 4.5657e-06
5411.4, 4.5356e-06
5413.4, 4.2047e-06
5415.4, 4.2099e-06
5417.4, 4.6014e-06
5419.4, 4.4931e-06
5421.4, 4.7408e-06
5423.4, 4.5404e-06
5425.4, 4.2467e-06
5427.4, 4.3777e-06
5429.4, 4.5405e-06
5431.4, 4.3584e-06
5433.4, 4.3229e-06
5435.4, 4.4399e-06
5437.4, 4.1566e-06
5439.4, 4.4527e-06
5441.4, 4.4347e-06
5443.4, 4.6184e-06
5445.4, 4.1891e-06
5447.4, 4.3921e-06
5449.4, 4.2471e-06
5451.4, 4.6086e-06
5453.4, 4.3338e-06
5455.4, 4.6526e-06
5457.5, 4.7221e-06
5459.5, 4.4023e-06
5461.5, 4.6772e-06
5463.5, 4.5633e-06
5465.5, 4.5339e-06
5467.5, 4.1904e-06
5469.5, 4.6025e-06
5471.5, 4.3215e-06
5473.5, 4.631e-06
5475.5, 4.5682e-06
5477.5, 4.7465e-06
5479.5, 4.604e-06
5481.5, 4.8228e-06
5483.5, 4.6149e-06
5485.5, 4.5986e-06
5487.5, 4.6841e-06
5489.5, 4.4613e-06
5491.5, 4.6001e-06
5493.5, 4.796e-06
5495.5, 4.737e-06
5497.5, 4.7035e-06
5499.5, 4.5981e-06
5501.5, 4.7359e-06
5503.5, 4.6122e-06
5505.5, 4.9401e-06
5507.5, 4.571e-06
5509.5, 4.594e-06
5511.5, 4.6418e-06
5513.5, 4.5345e-06
5515.5, 4.7391e-06
5517.5, 4.5441e-06
5519.5, 4.6861e-06
5521.5, 4.7299e-06
5523.5, 4.327e-06
5525.5, 4.5244e-06
5527.5, 4.367e-06
5529.5, 4.8134e-06
5531.5, 4.3216e-06
5533.5, 4.7855e-06
5535.5, 4.2392e-06
5537.5, 4.7502e-06
5539.5, 4.7771e-06
5541.5, 4.3761e-06
5543.5, 4.2786e-06
5545.5, 4.8278e-06
5547.5, 4.4663e-06
5549.5, 4.6943e-06
5551.5, 4.7899e-06
5553.5, 4.7928e-06
5555.5, 4.5494e-06
5557.6, 4.4802e-06
5559.6, 4.5415e-06
5561.6, 4.3908e-06
5563.6, 4.4887e-06
5565.6, 4.8544e-06
5567.6, 4.8422e-06
5569.6, 4.833e-06
5571.6, 4.5632e-06
5573.6, 4.4691e-06
5575.6, 4.4967e-06
5577.6, 4.6801e-06
5579.6, 4.683e-06
5581.6, 4.6105e-06
5583.6, 4.6095e-06
5585.6, 4.5624e-06
5587.6, 4.0455e-06
5589.6, 4.9831e-06
5591.6, 4.6349e-06
5593.6, 4.5148e-06
5595.6, 4.2059e-06
5597.6, 4.621e-06
5599.6, 4.3541e-06
5601.6, 4.6028e-06
5603.6, 4.5017e-06
5605.6, 4.7389e-06
5607.6, 4.6681e-06
5609.6, 4.5884e-06
5611.6, 4.5701e-06
5613.6, 4.6855e-06
5615.6, 4.5864e-06
5617.6, 4.3167e-06
5619.6, 4.4604e-06
5621.6, 4.5137e-06
5623.6, 4.5264e-06
5625.6, 4.3105e-06
5627.6, 4.6821e-06
5629.6, 4.6181e-06
5631.6, 4.5126e-06
5633.6, 4.6108e-06
5635.6, 4.899e-06
5637.6, 4.3386e-06
5639.6, 4.2759e-06
5641.6, 4.6753e-06
5643.6, 4.7199e-06
5645.6, 4.2771e-06
5647.6, 4.5948e-06
5649.6, 4.8363e-06
5651.6, 4.3703e-06
5653.6, 4.6591e-06
5655.6, 4.5187e-06
5657.7, 4.4936e-06
5659.7, 4.6384e-06
5661.7, 4.5879e-06
5663.7, 4.5485e-06
5665.7, 4.499e-06
5667.7, 4.7405e-06
5669.7, 4.6045e-06
5671.7, 4.7014e-06
5673.7, 4.7594e-06
5675.7, 4.6002e-06
5677.7, 4.3651e-06
5679.7, 4.535e-06
5681.7, 4.325e-06
5683.7, 4.7634e-06
5685.7, 4.4988e-06
5687.7, 4.7093e-06
5689.7, 4.5956e-06
5691.7, 4.7163e-06
5693.7, 4.7593e-06
5695.7, 4.4662e-06
5697.7, 4.6231e-06
5699.7, 4.7811e-06
5701.7, 4.5841e-06
5703.7, 4.4651e-06
5705.7, 4.5917e-06
5707.7, 4.8455e-06
5709.7, 4.4155e-06
5711.7, 4.7833e-06
5713.7, 4.6415e-06
5715.7, 4.5517e-06
5717.7, 4.3992e-06
5719.7, 4.6334e-06
5721.7, 4.8331e-06
5723.7, 4.7722e-06
5725.7, 4.812e-06
5727.7, 4.2229e-06
5729.7, 4.365e-06
5731.7, 4.65e-06
5733.7, 4.5574e-06
5735.7, 3.9701e-06
5737.7, 4.5686e-06
5739.7, 4.7385e-06
5741.7, 4.6451e-06
5743.7, 4.5712e-06
5745.7, 4.5746e-06
5747.7, 4.4515e-06
5749.7, 4.8578e-06
5751.7, 4.8781e-06
5753.7, 4.5327e-06
5755.7, 4.7402e-06
5757.8, 4.7315e-06
5759.8, 4.6664e-06
5761.8, 4.7348e-06
5763.8, 4.5584e-06
5765.8, 4.5194e-06
5767.8, 4.7e-06
5769.8, 4.6477e-06
5771.8, 4.7014e-06
5773.8, 4.6857e-06
5775.8, 4.4392e-06
5777.8, 4.7161e-06
5779.8, 4.3518e-06
5781.8, 4.6678e-06
5783.8, 4.2168e-06
5785.8, 4.4837e-06
5787.8, 4.4654e-06
5789.8, 4.5226e-06
5791.8, 4.7358e-06
5793.8, 4.4548e-06
5795.8, 4.5602e-06
5797.8, 4.7379e-06
5799.8, 4.4166e-06
5801.8, 4.2119e-06
5803.8, 4.1298e-06
5805.8, 4.7163e-06
5807.8, 4.647e-06
5809.8, 4.7153e-06
5811.8, 4.6853e-06
5813.8, 4.7814e-06
5815.8, 4.6087e-06
5817.8, 4.8365e-06
5819.8, 4.618e-06
5821.8, 4.7753e-06
5823.8, 4.5814e-06
5825.8, 4.5001e-06
5827.8, 4.6629e-06
5829.8, 4.6117e-06
5831.8, 4.598e-06
5833.8, 4.7794e-06
5835.8, 4.1956e-06
5837.8, 4.7868e-06
5839.8, 4.5936e-06
5841.8, 4.7643e-06
5843.8, 4.5371e-06
5845.8, 4.6871e-06
5847.8, 4.6047e-06
5849.8, 4.9938e-06
5851.8, 4.3668e-06
5853.8, 4.7119e-06
5855.8, 4.7865e-06
5857.9, 4.6198e-06
5859.9, 4.5636e-06
5861.9, 4.5442e-06
5863.9, 4.4827e-06
5865.9, 4.6644e-06
5867.9, 4.5931e-06
5869.9, 4.3526e-06
5871.9, 4.7826e-06
5873.9, 4.1486e-06
5875.9, 4.503e-06
5877.9, 4.5063e-06
5879.9, 4.6307e-06
5881.9, 4.7083e-06
5883.9, 4.6304e-06
5885.9, 4.7573e-06
5887.9, 4.5092e-06
5889.9, 4.498e-06
5891.9, 4.8464e-06
5893.9, 4.6649e-06
5895.9, 4.5623e-06
5897.9, 4.4315e-06
5899.9, 4.743e-06
5901.9, 4.8809e-06
5903.9, 4.2459e-06
5905.9, 4.3739e-06
5907.9, 4.7159e-06
5909.9, 4.4916e-06
5911.9, 4.7135e-06
5913.9, 4.338e-06
5915.9, 4.8017e-06
5917.9, 4.6425e-06
5919.9, 4.5307e-06
5921.9, 4.8226e-06
5923.9, 4.8587e-06
5925.9, 4.6556e-06
5927.9, 4.3377e-06
5929.9, 4.68e-06
5931.9, 4.7888e-06
5933.9, 4.386e-06
5935.9, 4.5015e-06
5937.9, 4.8333e-06
5939.9, 4.689e-06
5941.9, 4.7593e-06
5943.9, 4.5527e-06
5945.9, 4.4297e-06
5947.9, 4.6832e-06
5949.9, 4.756e-06
5951.9, 4.413e-06
5953.9, 4.1659e-06
5955.9, 4.708e-06
5958.0, 4.6693e-06
5960.0, 4.7786e-06
5962.0, 4.6233e-06
5964.0, 4.5986e-06
5966.0, 4.7255e-06
5968.0, 4.3739e-06
5970.0, 4.7296e-06
5972.0, 4.517e-06
5974.0, 4.8064e-06
5976.0, 4.7181e-06
5978.0, 4.6255e-06
5980.0, 4.684e-06
5982.0, 4.7452e-06
5984.0, 4.4433e-06
5986.0, 4.4716e-06
5988.0, 4.6593e-06
5990.0, 4.4662e-06
5992.0, 4.7552e-06
5994.0, 4.7413e-06
5996.0, 4.5313e-06
5998.0, 4.8339e-06
6000.0, 4.4906e-06
6002.0, 4.5828e-06
6004.0, 4.6068e-06
6006.0, 4.5253e-06
6008.0, 4.6042e-06
6010.0, 4.922e-06
6012.0, 4.5405e-06
6014.0, 4.8413e-06
6016.0, 4.5967e-06
6018.0, 4.8736e-06
6020.0, 4.6982e-06
6022.0, 4.3417e-06
6024.0, 4.6308e-06
6026.0, 4.5129e-06
6028.0, 4.5614e-06
6030.0, 4.6428e-06
6032.0, 4.7976e-06
6034.0, 4.4075e-06
6036.0, 4.2387e-06
6038.0, 4.6969e-06
6040.0, 4.6738e-06
6042.0, 4.8103e-06
6044.0, 4.6101e-06
6046.0, 4.5452e-06
6048.0, 4.575e-06
6050.0, 4.8375e-06
6052.0, 4.5887e-06
6054.0, 4.5746e-06
6056.0, 4.4544e-06
6058.1, 4.5089e-06
6060.1, 4.3737e-06
6062.1, 4.5269e-06
6064.1, 4.4976e-06
6066.1, 4.8931e-06
6068.1, 4.6759e-06
6070.1, 4.8156e-06
6072.1, 4.5061e-06
6074.1, 4.3713e-06
6076.1, 4.4528e-06
6078.1, 4.8498e-06
6080.1, 4.6753e-06
6082.1, 4.6486e-06
6084.1, 4.5286e-06
6086.1, 4.5114e-06
6088.1, 4.4765e-06
6090.1, 4.4295e-06
6092.1, 4.8351e-06
6094.1, 4.6125e-06
6096.1, 4.6495e-06
6098.1, 4.4662e-06
6100.1, 4.5743e-06
6102.1, 4.8182e-06
6104.1, 4.6005e-06
6106.1, 4.7678e-06
6108.1, 4.3529e-06
6110.1, 4.5125e-06
6112.1, 4.4359e-06
6114.1, 4.5527e-06
6116.1, 4.6493e-06
6118.1, 4.1962e-06
6120.1, 4.6417e-06
6122.1, 4.6501e-06
6124.1, 4.5661e-06
6126.1, 4.2703e-06
6128.1, 4.6047e-06
6130.1, 4.5369e-06
6132.1, 4.4386e-06
6134.1, 4.6298e-06
6136.1, 4.6571e-06
6138.1, 4.5925e-06
6140.1, 4.4036e-06
6142.1, 4.3671e-06
6144.1, 4.4461e-06
6146.1, 4.0488e-06
6148.1, 4.6439e-06
6150.1, 4.5365e-06
6152.1, 4.6238e-06
6154.1, 4.5584e-06
6156.1, 4.6707e-06
6158.2, 4.3513e-06
6160.2, 4.3165e-06
6162.2, 4.5458e-06
6164.2, 4.445e-06
6166.2, 4.7109e-06
6168.2, 4.5352e-06
6170.2, 4.7876e-06
6172.2, 4.6565e-06
6174.2, 4.3845e-06
6176.2, 4.6694e-06
6178.2, 2.117e-06
6180.2, -3.765e-08
6182.2, -3.478e-08
6184.2, -3.818e-08
6186.2, -3.607e-08
6188.2, -3.643e-08
6190.2, -3.633e-08
6192.2, -3.61e-08
6194.2, -3.883e-08
6196.2, -3.566e-08
6198.2, -3.435e-08
6200.2, -3.761e-08
6202.2, -3.899e-08
6204.2, -3.68e-08
6206.2, -3.765e-08
6208.2, -3.814e-08
6210.2, -3.841e-08
6212.2, -3.818e-08
6214.2, -4.027e-08
6216.2, -3.687e-08
6218.2, -3.742e-08
6220.2, -3.559e-08
6222.2, -3.748e-08
6224.2, -3.66e-08
6226.2, -3.612e-08
6228.2, -4.086e-08
6230.2, -4.281e-08
6232.2, -4.242e-08
6234.2, -3.913e-08
6236.2, -3.813e-08
6238.2, -3.931e-08
6240.2, -4.025e-08
6242.2, -3.598e-08
6244.2, -3.753e-08
6246.2, -3.518e-08
6248.2, -3.89e-08
6250.2, -3.729e-08
6252.2, -3.719e-08
6254.2, -3.863e-08
6256.2, -4.076e-08
6258.3, -4.173e-08
6260.3, -3.759e-08
6262.3, -4.226e-08
6264.3, -3.935e-08
6266.3, -4.002e-08
6268.3, -4.076e-08
6270.3, -3.973e-08
6272.3, -3.924e-08
6274.3, -4.057e-08
6276.3, -3.838e-08
6278.3, -4.504e-08
6280.3, -4.552e-08
6282.3, -4.103e-08
6284.3, -4.492e-08
6286.3, -4.374e-08
6288.3, -3.993e-08
6290.3, -3.837e-08
6292.3, -3.889e-08
6294.3, -3.88e-08
6296.3, -4.019e-08
6298.3, -4.225e-08
6300.3, -4.339e-08
6302.3, -3.934e-08
6304.3, -4.01e-08
6306.3, -4.261e-08
6308.3, -4.289e-08
6310.3, -4.467e-08
6312.3, -4.232e-08
6314.3, -4.177e-08
6316.3, -4.073e-08
6318.3, -3.996e-08
6320.3, -4.458e-08
6322.3, -4.511e-08
6324.3, -4.312e-08
6326.3, -4.408e-08
6328.3, -4.058e-08
6330.3, -4.562e-08
6332.3, -4.289e-08
6334.3, -4.156e-08
6336.3, -4.337e-08
6338.3, -4.49e-08
6340.3, -4.615e-08
6342.3, -4.583e-08
6344.3, -4.536e-08
6346.3, -4.764e-08
6348.3, -4.305e-08
6350.3, -4.263e-08
6352.3, -4.379e-08
6354.3, -4.515e-08
6356.3, -4.695e-08
6358.4, -4.364e-08
6360.4, -4.065e-08
6362.4, -4.267e-08
6364.4, -4.357e-08
6366.4, -4.347e-08
6368.4, -4.656e-08
6370.4, -4.422e-08
6372.4, -3.802e-08
6374.4, -4.246e-08
6376.4, -4.065e-08
6378.4, -4.245e-08
6380.4, -3.93e-08
6382.4, -3.917e-08
6384.4, -4.115e-08
6386.4, -4.065e-08
6388.4, -4.093e-08
6390.4, -4.072e-08
6392.4, -4.214e-08
6394.4, -4.182e-08
6396.4, -4.385e-08
6398.4, -4.051e-08
6400.4, -4.409e-08
6402.4, -4.139e-08
6404.4, -4.251e-08
6406.4, -3.968e-08
6408.4, -3.569e-08
6410.4, -3.889e-08
6412.4, -3.851e-08
6414.4, -4.549e-08
6416.4, -4.178e-08
6418.4, -4.228e-08
6420.4, -4.103e-08
6422.4, -3.796e-08
6424.4, -4.232e-08
6426.4, -4.198e-08
6428.4, -3.88e-08
6430.4, -4.329e-08
6432.4, -4.43e-08
6434.4, -4.125e-08
6436.4, -3.904e-08
6438.4, -4.01e-08
6440.4, -3.949e-08
6442.4, -4.106e-08
6444.4, -4.026e-08
6446.4, -4.199e-08
6448.4, -3.835e-08
6450.4, -3.842e-08
6452.4, -4.192e-08
6454.4, -3.871e-08
6456.4, -4.113e-08
6458.5, -4.074e-08
6460.5, -3.824e-08
6462.5, -3.838e-08
6464.5, -3.711e-08
6466.5, -3.631e-08
6468.5, -3.996e-08
6470.5, -3.845e-08
6472.5, -3.999e-08
6474.5, -3.852e-08
6476.5, -3.431e-08
6478.5, -3.334e-08
6480.5, -3.707e-08
6482.5, -3.317e-08
6484.5, -3.528e-08
6486.5, -3.616e-08
6488.5, -3.606e-08
6490.5, -3.901e-08
6492.5, -3.986e-08
6494.5, -3.633e-08
6496.5, -3.611e-08
6498.5, -3.683e-08
6500.5, -3.744e-08
6502.5, -3.896e-08
6504.5, -4.475e-08
6506.5, -3.795e-08
6508.5, -4.276e-08
6510.5, -4.428e-08
6512.5, -4.374e-08
6514.5, -3.944e-08
6516.5, -3.999e-08
6518.5, -4.321e-08
6520.5, -4.241e-08
6522.5, -4.076e-08
6524.5, -3.714e-08
6526.5, -3.733e-08
6528.5, -4.068e-08
6530.5, -3.951e-08
6532.5, -3.921e-08
6534.5, -4.296e-08
6536.5, -4.306e-08
6538.5, -4.435e-08
6540.5, -4.133e-08
6542.5, -4.156e-08
6544.5, -3.919e-08
6546.5, -4.206e-08
6548.5, -4.089e-08
6550.5, -4.085e-08
6552.5, -4.312e-08
6554.5, -3.984e-08
6556.5, -3.861e-08
6558.6, -3.902e-08
6560.6, -4.4e-08
6562.6, -3.76e-08
6564.6, -3.846e-08
6566.6, -3.981e-08
6568.6, -3.7e-08
6570.6, -3.718e-08
6572.6, -3.728e-08
6574.6, -3.781e-08
6576.6, -3.839e-08
6578.6, -3.93e-08
6580.6, -3.983e-08
6582.6, -3.766e-08
6584.6, -3.909e-08
6586.6, -3.876e-08
6588.6, -3.717e-08
6590.6, -3.692e-08
6592.6, -3.756e-08
6594.6, -3.796e-08
6596.6, -3.965e-08
6598.6, -4.102e-08
6600.6, -3.947e-08
6602.6, -3.728e-08
6604.6, -3.582e-08
6606.6, -3.721e-08
6608.6, -4.107e-08
6610.6, -4.167e-08
6612.6, -3.78e-08
6614.6, -3.917e-08
6616.6, -3.828e-08
6618.6, -3.974e-08
6620.6, -3.974e-08
6622.6, -4.253e-08
6624.6, -4.05e-08
6626.6, -4.1e-08
6628.6, -4.241e-08
6630.6, -4.312e-08
6632.6, -4.074e-08
6634.6, -4.724e-08
6636.6, -4.03e-08
6638.6, -3.897e-08
6640.6, -3.591e-08
6642.6, -3.759e-08
6644.6, -3.778e-08
6646.6, -4.052e-08
6648.6, -3.871e-08
6650.6, -3.822e-08
6652.6, -3.834e-08
6654.6, -3.861e-08
6656.6, -3.897e-08
6658.7, -4.107e-08
6660.7, -4.013e-08
6662.7, -4.054e-08
6664.7, -3.904e-08
6666.7, -3.773e-08
6668.7, -4.114e-08
6670.7, -4.355e-08
6672.7, -3.975e-08
6674.7, -3.718e-08
6676.7, -3.916e-08
6678.7, -3.684e-08
6680.7, -3.829e-08
6682.7, -3.618e-08
6684.7, -4.075e-08
6686.7, -3.696e-08
6688.7, -4.174e-08
6690.7, -4.047e-08
6692.7, -4.265e-08
6694.7, -4.14e-08
6696.7, -4.358e-08
6698.7, -4.284e-08
6700.7, -4.198e-08
6702.7, -4.227e-08
6704.7, -4.086e-08
6706.7, -4.213e-08
6708.7, -3.9e-08
6710.7, -3.826e-08
6712.7, -3.949e-08
6714.7, -4.014e-08
6716.7, -4e-08
6718.7, -3.866e-08
6720.7, -4.027e-08
6722.7, -3.437e-08
6724.7, -3.75e-08
6726.7, -3.552e-08
6728.7, -3.804e-08
6730.7, -3.657e-08
6732.7, -4.062e-08
6734.7, -3.936e-08
6736.7, -4.13e-08
6738.7, -3.969e-08
6740.7, -3.874e-08
6742.7, -3.648e-08
6744.7, -4.119e-08
6746.7, -4.2e-08
6748.7, -3.982e-08
6750.7, -4.274e-08
6752.7, -3.992e-08
6754.7, -4.259e-08
6756.7, -3.931e-08
6758.8, -3.794e-08
6760.8, -3.838e-08
6762.8, -3.967e-08
6764.8, -4.098e-08
6766.8, -4.083e-08
6768.8, -4.06e-08
6770.8, -3.662e-08
6772.8, -3.556e-08
6774.8, -4.128e-08
6776.8, -3.874e-08
6778.8, -3.936e-08
6780.8, -3.65e-08
6782.8, -3.651e-08
6784.8, -3.809e-08
6786.8, -3.75e-08
6788.8, -4.008e-08
6790.8, -3.556e-08
6792.8, -3.701e-08
6794.8, -3.752e-08
6796.8, -3.746e-08
6798.8, -3.458e-08
6800.8, -3.84e-08
6802.8, -3.81e-08
6804.8, -3.983e-08
6806.8, -3.355e-08
6808.8, -3.764e-08
6810.8, -3.959e-08
6812.8, -3.874e-08
6814.8, -3.888e-08
6816.8, -4.049e-08
6818.8, -3.829e-08
6820.8, -3.749e-08
6822.8, -3.905e-08
6824.8, -4.06e-08
6826.8, -3.718e-08
6828.8, -3.79e-08
6830.8, -3.575e-08
6832.8, -4.22e-08
6834.8, -3.887e-08
6836.8, -3.923e-08
6838.8, -4.397e-08
6840.8, -3.661e-08
6842.8, -4.104e-08
6844.8, -3.906e-08
6846.8, -3.795e-08
6848.8, -4.093e-08
6850.8, -4.01e-08
6852.8, -3.843e-08
6854.8, -4.067e-08
6856.8, -3.942e-08
6858.9, -3.936e-08
6860.9, -3.9e-08
6862.9, -3.82e-08
6864.9, -3.903e-08
6866.9, -3.695e-08
6868.9, -3.946e-08
6870.9, -4.039e-08
6872.9, -3.602e-08
6874.9, -3.623e-08
6876.9, -3.808e-08
6878.9, -3.592e-08
6880.9, -3.447e-08
6882.9, -3.78e-08
6884.9, -3.486e-08
6886.9, -3.66e-08
6888.9, -4.138e-08
6890.9, -4.256e-08
6892.9, -3.945e-08
6894.9, -3.921e-08
6896.9, -3.997e-08
6898.9, -3.979e-08
6900.9, -3.654e-08
6902.9, -3.874e-08
6904.9, -3.744e-08
6906.9, -3.834e-08
6908.9, -4.105e-08
6910.9, -3.873e-08
6912.9, -3.776e-08
6914.9, -3.54e-08
6916.9, -3.599e-08
6918.9, -3.468e-08
6920.9, -3.115e-08
6922.9, -3.493e-08
6924.9, -3.486e-08
6926.9, -3.199e-08
6928.9, -3.155e-08
6930.9, -3.572e-08
6932.9, -3.572e-08
6934.9, -3.602e-08
6936.9, -4.052e-08
6938.9, -4.198e-08
6940.9, -4.054e-08
6942.9, -3.837e-08
6944.9, -4.113e-08
6946.9, -3.84e-08
6948.9, -3.796e-08
6950.9, -3.72e-08
6952.9, -3.909e-08
6954.9, -3.536e-08
6956.9, -3.622e-08
6959.0, -3.867e-08
6961.0, -3.832e-08
6963.0, -3.625e-08
6965.0, -3.747e-08
6967.0, -3.678e-08
6969.0, -3.764e-08
6971.0, -3.924e-08
6973.0, -4.04e-08
6975.0, -3.748e-08
6977.0, -3.73e-08
6979.0, -3.332e-08
6981.0, -3.735e-08
6983.0, -3.382e-08
6985.0, -3.513e-08
6987.0, -3.625e-08
6989.0, -3.643e-08
6991.0, -3.771e-08
6993.0, -3.654e-08
6995.0, -3.416e-08
6997.0, -3.909e-08
6999.0, -3.98e-08
7001.0, -4.146e-08
7003.0, -3.959e-08
7005.0, -4e-08
7007.0, -3.87e-08
7009.0, -3.931e-08
7011.0, -3.941e-08
7013.0, -3.97e-08
7015.0, -3.435e-08
7017.0, -3.81e-08
7019.0, -3.797e-08
7021.0, -4.036e-08
7023.0, -3.668e-08
7025.0, -4.066e-08
7027.0, -3.833e-08
7029.0, -4.121e-08
7031.0, -3.923e-08
7033.0, -3.696e-08
7035.0, -4.041e-08
7037.0, -3.832e-08
7039.0, -4.123e-08
7041.0, -3.969e-08
7043.0, -3.614e-08
7045.0, -3.918e-08
7047.0, -3.743e-08
7049.0, -3.594e-08
7051.0, -3.567e-08
7053.0, -3.63e-08
7055.0, -3.641e-08
7057.0, -3.309e-08
7059.1, -3.551e-08
7061.1, -3.707e-08
7063.1, -3.26e-08
7065.1, -3.684e-08
7067.1, -3.585e-08
7069.1, -4.046e-08
7071.1, -3.999e-08
7073.1, -3.461e-08
7075.1, -3.893e-08
7077.1, -3.966e-08
7079.1, -3.949e-08
7081.1, -3.877e-08
7083.1, -3.376e-08
7085.1, -3.376e-08
7087.1, -3.705e-08
7089.1, -4.115e-08
7091.1, -3.848e-08
7093.1, -3.755e-08
7095.1, -3.293e-08
7097.1, -3.648e-08
7099.1, -4.108e-08
7101.1, -3.727e-08
7103.1, -3.872e-08
7105.1, -3.724e-08
7107.1, -3.95e-08
7109.1, -4.035e-08
7111.1, -4.066e-08
7113.1, -3.691e-08
7115.1, -3.946e-08
7117.1, -3.84e-08
7119.1, -4.038e-08
7121.1, -4.025e-08
7123.1, -3.895e-08
7125.1, -4.021e-08
7127.1, -3.65e-08
7129.1, -3.921e-08
7131.1, -3.733e-08
7133.1, -3.964e-08
7135.1, -3.772e-08
7137.1, -3.721e-08
7139.1, -4.32e-08
7141.1, -4.191e-08
7143.1, -3.9e-08
7145.1, -4.184e-08
7147.1, -3.716e-08
7149.1, -4.297e-08
7151.1, -3.786e-08
7153.1, -4.238e-08
7155.1, -3.583e-08
7157.1, -3.949e-08
7159.2, -3.772e-08
7161.2, -3.768e-08
7163.2, -4.191e-08
7165.2, -4.104e-08
7167.2, -4.071e-08
7169.2, -4.403e-08
7171.2, -4.094e-08
7173.2, -3.948e-08
7175.2, -4.291e-08
7177.2, -3.983e-08
7179.2, -4.14e-08
7181.2, -4.198e-08
7183.2, -4.474e-08
7185.2, -3.861e-08
7187.2, -3.859e-08
7189.2, -3.996e-08
7191.2, -4.416e-08
7193.2, -3.857e-08
7195.2, -4.134e-08
7197.2, -3.796e-08
7199.2, -3.958e-08
7201.2, -3.913e-08
7203.2, -4.037e-08
7205.2, -4.084e-08
7207.2, -4.032e-08
7209.2, -4.307e-08
7211.2, -4.196e-08
7213.2, -4.137e-08
7215.2, -3.607e-08
7217.2, -4.132e-08
7219.2, -3.883e-08
7221.2, -3.47e-08
7223.2, -3.571e-08
7225.2, -3.884e-08
7227.2, -3.823e-08
7229.2, -3.923e-08
7231.2, -3.996e-08
7233.2, -3.744e-08
7235.2, 2.2791e-06
7237.2, 3.9656e-06
7239.2, 4.4165e-06
7241.2, 4.178e-06
7243.2, 4.2614e-06
7245.2, 4.1999e-06
7247.2, 4.2996e-06
7249.2, 4.2347e-06
7251.2, 4.4248e-06
7253.2, 4.3699e-06
7255.2, 4.4758e-06
7257.2, 4.4957e-06
7259.3, 4.4211e-06
7261.3, 4.4886e-06
7263.3, 4.0036e-06
7265.3, 4.5388e-06
7267.3, 4.6291e-06
7269.3, 4.0599e-06
7271.3, 4.3587e-06
7273.3, 4.4342e-06
7275.3, 4.43e-06
7277.3, 4.5181e-06
7279.3, 4.4672e-06
7281.3, 4.5694e-06
7283.3, 4.4908e-06
7285.3, 4.4004e-06
7287.3, 4.1124e-06
7289.3, 4.4693e-06
7291.3, 4.3044e-06
7293.3, 4.5676e-06
7295.3, 4.5821e-06
7297.3, 4.311e-06
7299.3, 4.098e-06
7301.3, 4.0471e-06
7303.3, 4.2616e-06
7305.3, 4.2973e-06
7307.3, 4.3224e-06
7309.3, 4.1687e-06
7311.3, 4.6065e-06
7313.3, 4.3749e-06
7315.3, 4.1049e-06
7317.3, 4.4354e-06
7319.3, 3.9889e-06
7321.3, 4.3335e-06
7323.3, 4.1274e-06
7325.3, 4.3933e-06
7327.3, 4.313e-06
7329.3, 4.3327e-06
7331.3, 4.3591e-06
7333.3, 4.0892e-06
7335.3, 4.3675e-06
7337.3, 4.5917e-06
7339.3, 4.703e-06
7341.3, 4.2469e-06
7343.3, 4.173e-06
7345.3, 4.4322e-06
7347.3, 4.1898e-06
7349.3, 4.6463e-06
7351.3, 4.4425e-06
7353.3, 4.4596e-06
7355.3, 4.559e-06
7357.3, 4.3424e-06
7359.4, 4.6695e-06
7361.4, 4.5527e-06
7363.4, 4.7346e-06
7365.4, 4.4495e-06
7367.4, 4.4132e-06
7369.4, 4.5493e-06
7371.4, 4.5335e-06
7373.4, 4.491e-06
7375.4, 4.5271e-06
7377.4, 4.7374e-06
7379.4, 4.6475e-06
7381.4, 4.4373e-06
7383.4, 4.1402e-06
7385.4, 4.4832e-06
7387.4, 4.6428e-06
7389.4, 4.5317e-06
7391.4, 4.5007e-06
7393.4, 4.7639e-06
7395.4, 4.2354e-06
7397.4, 4.4363e-06
7399.4, 4.7816e-06
7401.4, 4.4102e-06
7403.4, 4.4491e-06
7405.4, 4.5875e-06
7407.4, 4.4203e-06
7409.4, 4.4133e-06
7411.4, 4.5055e-06
7413.4, 4.4924e-06
7415.4, 4.6106e-06
7417.4, 4.4122e-06
7419.4, 4.5594e-06
7421.4, 4.541e-06
7423.4, 4.4872e-06
7425.4, 4.5345e-06
7427.4, 4.5592e-06
7429.4, 4.5894e-06
7431.4, 4.5939e-06
7433.4, 4.5941e-06
7435.4, 4.4831e-06
7437.4, 4.7004e-06
7439.4, 4.6266e-06
7441.4, 4.3452e-06
7443.4, 4.6138e-06
7445.4, 4.5219e-06
7447.4, 4.4251e-06
7449.4, 4.7318e-06
7451.4, 4.1775e-06
7453.4, 4.5705e-06
7455.4, 4.8844e-06
7457.4, 4.6196e-06
7459.5, 4.3682e-06
7461.5, 4.4229e-06
7463.5, 4.4889e-06
7465.5, 4.2823e-06
7467.5, 4.7386e-06
7469.5, 4.526e-06
7471.5, 4.3551e-06
7473.5, 4.0873e-06
7475.5, 4.5535e-06
7477.5, 4.2572e-06
7479.5, 4.4387e-06
7481.5, 4.4565e-06
7483.5, 4.6272e-06
7485.5, 4.6509e-06
7487.5, 4.3301e-06
7489.5, 4.5851e-06
7491.5, 4.8162e-06
7493.5, 4.6485e-06
7495.5, 4.4653e-06
7497.5, 4.6118e-06
7499.5, 4.5483e-06
7501.5, 4.8573e-06
7503.5, 4.5686e-06
7505.5, 4.1855e-06
7507.5, 4.4532e-06
7509.5, 4.444e-06
7511.5, 4.5797e-06
7513.5, 4.4785e-06
7515.5, 4.76e-06
7517.5, 4.6018e-06
7519.5, 4.5067e-06
7521.5, 4.3883e-06
7523.5, 4.5585e-06
7525.5, 4.6773e-06
7527.5, 4.3683e-06
7529.5, 4.5764e-06
7531.5, 4.4982e-06
7533.5, 4.4254e-06
7535.5, 4.7887e-06
7537.5, 4.5079e-06
7539.5, 4.7008e-06
7541.5, 4.6984e-06
7543.5, 4.3477e-06
7545.5, 4.499e-06
7547.5, 4.3508e-06
7549.5, 4.457e-06
7551.5, 4.5857e-06
7553.5, 4.2754e-06
7555.5, 4.4041e-06
7557.5, 4.4125e-06
7559.6, 4.7699e-06
7561.6, 4.5656e-06
7563.6, 4.5609e-06
7565.6, 4.3099e-06
7567.6, 4.3971e-06
7569.6, 4.2141e-06
7571.6, 4.7317e-06
7573.6, 4.5419e-06
7575.6, 4.5165e-06
7577.6, 4.5327e-06
7579.6, 4.7224e-06
7581.6, 4.6341e-06
7583.6, 4.7176e-06
7585.6, 4.4096e-06
7587.6, 4.5305e-06
7589.6, 4.6808e-06
7591.6, 4.7699e-06
7593.6, 4.4619e-06
7595.6, 3.9866e-06
7597.6, 4.7729e-06
7599.6, 4.329e-06
7601.6, 4.747e-06
7603.6, 4.1808e-06
7605.6, 4.7757e-06
7607.6, 4.6138e-06
7609.6, 4.4885e-06
7611.6, 4.6724e-06
7613.6, 4.691e-06
7615.6, 4.2576e-06
7617.6, 4.258e-06
7619.6, 4.5949e-06
7621.6, 4.3374e-06
7623.6, 4.6418e-06
7625.6, 4.3509e-06
7627.6, 4.6463e-06
7629.6, 4.666e-06
7631.6, 4.4237e-06
7633.6, 4.3546e-06
7635.6, 4.5886e-06
7637.6, 4.7185e-06
7639.6, 4.3738e-06
7641.6, 4.6795e-06
7643.6, 4.4175e-06
7645.6, 4.4026e-06
7647.6, 4.4926e-06
7649.6, 4.409e-06
7651.6, 4.1438e-06
7653.6, 4.5573e-06
7655.6, 4.5952e-06
7657.6, 4.761e-06
7659.7, 4.6149e-06
7661.7, 4.6581e-06
7663.7, 4.2745e-06
7665.7, 4.5684e-06
7667.7, 4.5793e-06
7669.7, 4.4605e-06
7671.7, 4.7586e-06
7673.7, 4.5867e-06
7675.7, 4.6048e-06
7677.7, 4.5497e-06
7679.7, 4.6797e-06
7681.7, 4.4227e-06
7683.7, 4.4742e-06
7685.7, 4.4822e-06
7687.7, 4.4496e-06
7689.7, 4.5501e-06
7691.7, 4.7459e-06
7693.7, 4.5313e-06
7695.7, 4.6922e-06
7697.7, 4.7204e-06
7699.7, 4.6481e-06
7701.7, 4.7391e-06
7703.7, 4.9251e-06
7705.7, 4.8124e-06
7707.7, 4.9124e-06
7709.7, 4.246e-06
7711.7, 4.667e-06
7713.7, 4.7092e-06
7715.7, 4.3138e-06
7717.7, 4.7143e-06
7719.7, 4.2049e-06
7721.7, 4.5661e-06
7723.7, 4.6754e-06
7725.7, 4.4063e-06
7727.7, 4.654e-06
7729.7, 4.6733e-06
7731.7, 4.4149e-06
7733.7, 4.6186e-06
7735.7, 4.7338e-06
7737.7, 4.6127e-06
7739.7, 4.5232e-06
7741.7, 4.5421e-06
7743.7, 4.69e-06
7745.7, 4.4922e-06
7747.7, 4.3777e-06
7749.7, 4.5058e-06
7751.7, 4.7002e-06
7753.7, 4.3746e-06
7755.7, 4.6774e-06
7757.7, 4.6244e-06
7759.8, 4.5815e-06
7761.8, 4.7107e-06
7763.8, 4.5252e-06
7765.8, 4.3694e-06
7767.8, 4.5755e-06
7769.8, 4.4343e-06
7771.8, 4.4297e-06
7773.8, 4.8227e-06
7775.8, 4.4706e-06
7777.8, 4.8203e-06
7779.8, 4.4485e-06
7781.8, 4.3054e-06
7783.8, 4.5957e-06
7785.8, 4.1693e-06
7787.8, 4.6077e-06
7789.8, 4.6538e-06
7791.8, 4.6527e-06
7793.8, 4.6716e-06
7795.8, 4.6666e-06
7797.8, 4.5868e-06
7799.8, 4.7124e-06
7801.8, 4.5572e-06
7803.8, 4.4911e-06
7805.8, 4.6802e-06
7807.8, 4.6919e-06
7809.8, 4.518e-06
7811.8, 4.4339e-06
7813.8, 4.6779e-06
7815.8, 4.543e-06
7817.8, 4.5072e-06
7819.8, 4.3584e-06
7821.8, 4.289e-06
7823.8, 4.4639e-06
7825.8, 4.7269e-06
7827.8, 4.4991e-06
7829.8, 4.5257e-06
7831.8, 4.6659e-06
7833.8, 4.8433e-06
7835.8, 4.8241e-06
7837.8, 4.4855e-06
7839.8, 4.8342e-06
7841.8, 4.7066e-06
7843.8, 4.5479e-06
7845.8, 4.2368e-06
7847.8, 4.757e-06
7849.8, 4.8532e-06
7851.8, 4.6453e-06
7853.8, 4.6368e-06
7855.8, 4.6216e-06
7857.8, 4.418e-06
7859.9, 4.5283e-06
7861.9, 4.8112e-06
7863.9, 4.6571e-06
7865.9, 4.4852e-06
7867.9, 4.6156e-06
7869.9, 4.7976e-06
7871.9, 4.6951e-06
7873.9, 4.7141e-06
7875.9, 4.6131e-06
7877.9, 4.52e-06
7879.9, 4.5241e-06
7881.9, 4.6325e-06
7883.9, 4.8608e-06
7885.9, 4.3825e-06
7887.9, 4.5314e-06
7889.9, 4.4483e-06
7891.9, 4.7581e-06
7893.9, 4.6516e-06
7895.9, 4.4683e-06
7897.9, 4.4936e-06
7899.9, 4.2904e-06
7901.9, 4.649e-06
7903.9, 4.5959e-06
7905.9, 4.6711e-06
7907.9, 4.5879e-06
7909.9, 4.721e-06
7911.9, 4.501e-06
7913.9, 4.7193e-06
7915.9, 4.6605e-06
7917.9, 4.7252e-06
7919.9, 4.6915e-06
7921.9, 4.4225e-06
7923.9, 4.738e-06
7925.9, 4.5543e-06
7927.9, 4.4901e-06
7929.9, 4.3135e-06
7931.9, 4.636e-06
7933.9, 4.511e-06
7935.9, 4.518e-06
7937.9, 4.518e-06
7939.9, 4.6853e-06
7941.9, 4.7472e-06
7943.9, 4.2973e-06
7945.9, 4.4524e-06
7947.9, 4.842e-06
7949.9, 4.5207e-06
7951.9, 4.4492e-06
7953.9, 4.5197e-06
7955.9, 4.4945e-06
7957.9, 4.7146e-06
7960.0, 4.5522e-06
7962.0, 4.2849e-06
7964.0, 4.1882e-06
7966.0, 4.9049e-06
7968.0, 4.5079e-06
7970.0, 4.4727e-06
7972.0, 4.6065e-06
7974.0, 4.7695e-06
7976.0, 4.6907e-06
7978.0, 4.6348e-06
7980.0, 4.7215e-06
7982.0, 4.5822e-06
7984.0, 4.7012e-06
7986.0, 4.5862e-06
7988.0, 4.4578e-06
7990.0, 4.7061e-06
7992.0, 4.4292e-06
7994.0, 4.6411e-06
7996.0, 4.5897e-06
7998.0, 4.5322e-06
8000.0, 4.7638e-06
8002.0, 4.6813e-06
8004.0, 4.8795e-06
8006.0, 4.5176e-06
8008.0, 4.5602e-06
8010.0, 4.7382e-06
8012.0, 4.4623e-06
8014.0, 4.6764e-06
8016.0, 4.7651e-06
8018.0, 4.6856e-06
8020.0, 4.6726e-06
8022.0, 4.6049e-06
8024.0, 4.5454e-06
8026.0, 4.4663e-06
8028.0, 4.8852e-06
8030.0, 4.598e-06
8032.0, 4.6625e-06
8034.0, 4.5691e-06
8036.0, 4.393e-06
8038.0, 4.8507e-06
8040.0, 4.721e-06
8042.0, 4.4684e-06
8044.0, 4.594e-06
8046.0, 4.5887e-06
8048.0, 4.7428e-06
8050.0, 4.4378e-06
8052.0, 4.5661e-06
8054.0, 4.4108e-06
8056.0, 4.6697e-06
8058.0, 4.5434e-06
8060.1, 4.4125e-06
8062.1, 4.6231e-06
8064.1, 4.3719e-06
8066.1, 4.7061e-06
8068.1, 4.5972e-06
8070.1, 4.813e-06
8072.1, 4.6208e-06
8074.1, 4.4697e-06
8076.1, 4.6999e-06
8078.1, 4.7313e-06
8080.1, 4.6127e-06
8082.1, 4.6876e-06
8084.1, 4.3399e-06
8086.1, 4.5202e-06
8088.1, 4.5641e-06
8090.1, 4.6899e-06
8092.1, 4.39e-06
8094.1, 4.4883e-06
8096.1, 4.4272e-06
8098.1, 4.6278e-06
8100.1, 4.6851e-06
8102.1, 4.4516e-06
8104.1, 4.7647e-06
8106.1, 4.6025e-06
8108.1, 4.5844e-06
8110.1, 4.6444e-06
8112.1, 4.4218e-06
8114.1, 4.5474e-06
8116.1, 4.4661e-06
8118.1, 4.7879e-06
8120.1, 4.4213e-06
8122.1, 4.682e-06
8124.1, 4.1402e-06
8126.1, 4.8448e-06
8128.1, 4.5698e-06
8130.1, 4.3335e-06
8132.1, 4.587e-06
8134.1, 4.5593e-06
8136.1, 4.4853e-06
8138.1, 4.68e-06
8140.1, 4.6984e-06
8142.1, 4.563e-06
8144.1, 4.6268e-06
8146.1, 4.4323e-06
8148.1, 4.3075e-06
8150.1, 4.6725e-06
8152.1, 4.6418e-06
8154.1, 4.5961e-06
8156.1, 4.5697e-06
8158.1, 4.5851e-06
8160.2, 4.6272e-06
8162.2, 4.6486e-06
8164.2, 4.6048e-06
8166.2, 4.7429e-06
8168.2, 4.3429e-06
8170.2, 4.1392e-06
8172.2, 4.6231e-06
8174.2, 4.4359e-06
8176.2, 4.6812e-06
8178.2, 4.6191e-06
8180.2, 4.4659e-06
8182.2, 4.7156e-06
8184.2, 4.6366e-06
8186.2, 4.4694e-06
8188.2, 4.7261e-06
8190.2, 4.7115e-06
8192.2, 4.7804e-06
8194.2, 4.3774e-06
8196.2, 4.7257e-06
8198.2, 4.43e-06
8200.2, 4.7462e-06
8202.2, 4.5304e-06
8204.2, 4.8199e-06
8206.2, 4.618e-06
8208.2, 4.7203e-06
8210.2, 4.7471e-06
8212.2, 4.669e-06
8214.2, 4.3915e-06
8216.2, 4.6742e-06
8218.2, 4.3955e-06
8220.2, 4.6422e-06
8222.2, 4.747e-06
8224.2, 4.6774e-06
8226.2, 4.6523e-06
8228.2, 4.5984e-06
8230.2, 4.4819e-06
8232.2, 4.4641e-06
8234.2, 4.7982e-06
8236.2, 2.3323e-06
8238.2, -3.572e-08
8240.2, -3.948e-08
8242.2, -4.141e-08
8244.2, -3.925e-08
8246.2, -3.723e-08
8248.2, -3.801e-08
8250.2, -4.013e-08
8252.2, -4.027e-08
8254.2, -4.261e-08
8256.2, -4.294e-08
8258.2, -4.12e-08
8260.3, -4.075e-08
8262.3, -4.371e-08
8264.3, -3.683e-08
8266.3, -3.667e-08
8268.3, -3.999e-08
8270.3, -3.655e-08
8272.3, -3.753e-08
8274.3, -4.135e-08
8276.3, -4.068e-08
8278.3, -4.235e-08
8280.3, -3.879e-08
8282.3, -3.517e-08
8284.3, -3.84e-08
8286.3, -3.757e-08
8288.3, -3.86e-08
8290.3, -4.115e-08
8292.3, -3.72e-08
8294.3, -3.801e-08
8296.3, -3.926e-08
8298.3, -4.161e-08
8300.3, -3.917e-08
8302.3, -3.827e-08
8304.3, -3.923e-08
8306.3, -4.072e-08
8308.3, -3.539e-08
8310.3, -4.249e-08
8312.3, -4.028e-08
8314.3, -4.153e-08
8316.3, -4.04e-08
8318.3, -4.021e-08
8320.3, -4.114e-08
8322.3, -3.946e-08
8324.3, -4.257e-08
8326.3, -4.011e-08
8328.3, -3.561e-08
8330.3, -3.53e-08
8332.3, -3.787e-08
8334.3, -3.653e-08
8336.3, -3.761e-08
8338.3, -3.748e-08
8340.3, -3.642e-08
8342.3, -3.592e-08
8344.3, -3.803e-08
8346.3, -3.831e-08
8348.3, -3.793e-08
8350.3, -3.671e-08
8352.3, -4.022e-08
8354.3, -3.75e-08
8356.3, -4.116e-08
8358.3, -3.888e-08
8360.4, -3.888e-08
8362.4, -3.705e-08
8364.4, -3.683e-08
8366.4, -3.584e-08
8368.4, -3.643e-08
8370.4, -3.791e-08
8372.4, -4.061e-08
8374.4, -3.953e-08
8376.4, -3.646e-08
8378.4, -3.726e-08
8380.4, -3.71e-08
8382.4, -3.647e-08
8384.4, -3.689e-08
8386.4, -3.642e-08
8388.4, -3.643e-08
8390.4, -3.936e-08
8392.4, -4.277e-08
8394.4, -3.791e-08
8396.4, -3.757e-08
8398.4, -4.109e-08
8400.4, -4.451e-08
8402.4, -4.336e-08
8404.4, -4.408e-08
8406.4, -3.832e-08
8408.4, -4.005e-08
8410.4, -4.062e-08
8412.4, -4.16e-08
8414.4, -4.238e-08
8416.4, -4.3e-08
8418.4, -4.11e-08
8420.4, -4.311e-08
8422.4, -3.67e-08
8424.4, -3.768e-08
8426.4, -3.394e-08
8428.4, -3.734e-08
8430.4, -4.237e-08
8432.4, -4.044e-08
8434.4, -4.018e-08
8436.4, -3.763e-08
8438.4, -4.015e-08
8440.4, -3.721e-08
8442.4, -3.819e-08
8444.4, -4.187e-08
8446.4, -3.622e-08
8448.4, -4.233e-08
8450.4, -3.911e-08
8452.4, -4.04e-08
8454.4, -4.021e-08
8456.4, -3.676e-08
8458.4, -3.963e-08
8460.5, -4.032e-08
8462.5, -3.832e-08
8464.5, -3.99e-08
8466.5, -4.095e-08
8468.5, -4.177e-08
8470.5, -4.211e-08
8472.5, -4.146e-08
8474.5, -4.288e-08
8476.5, -3.957e-08
8478.5, -4.007e-08
8480.5, -3.872e-08
8482.5, -4.035e-08
8484.5, -4.26e-08
8486.5, -4.059e-08
8488.5, -4.143e-08
8490.5, -4.078e-08
8492.5, -3.975e-08
8494.5, -3.934e-08
8496.5, -4.06e-08
8498.5, -4.159e-08
8500.5, -4.235e-08
8502.5, -4.078e-08
8504.5, -3.948e-08
8506.5, -4.444e-08
8508.5, -4.154e-08
8510.5, -4.36e-08
8512.5, -3.999e-08
8514.5, -4.314e-08
8516.5, -4.289e-08
8518.5, -4.315e-08
8520.5, -4.091e-08
8522.5, -4.033e-08
8524.5, -4.132e-08
8526.5, -3.778e-08
8528.5, -3.651e-08
8530.5, -3.495e-08
8532.5, -4.262e-08
8534.5, -3.872e-08
8536.5, -3.947e-08
8538.5, -4.055e-08
8540.5, -3.958e-08
8542.5, -4.373e-08
8544.5, -3.921e-08
8546.5, -4.158e-08
8548.5, -3.746e-08
8550.5, -3.833e-08
8552.5, -3.752e-08
8554.5, -3.851e-08
8556.5, -3.741e-08
8558.5, -3.455e-08
8560.6, -3.852e-08
8562.6, -4.055e-08
8564.6, -3.917e-08
8566.6, -3.949e-08
8568.6, -4.114e-08
8570.6, -4.845e-08
8572.6, -4.34e-08
8574.6, -4.35e-08
8576.6, -4.166e-08
8578.6, -4.248e-08
8580.6, -4.214e-08
8582.6, -3.891e-08
8584.6, -4.179e-08
8586.6, -4.417e-08
8588.6, -4.437e-08
8590.6, -4.048e-08
8592.6, -4.534e-08
8594.6, -4.048e-08
8596.6, -4.275e-08
8598.6, -4.012e-08
8600.6, -3.833e-08
8602.6, -3.968e-08
8604.6, -4.12e-08
8606.6, -4.171e-08
8608.6, -4.08e-08
8610.6, -4.305e-08
8612.6, -3.976e-08
8614.6, -4.152e-08
8616.6, -4.033e-08
8618.6, -3.498e-08
8620.6, -4.051e-08
8622.6, -3.957e-08
8624.6, -3.863e-08
8626.6, -3.766e-08
8628.6, -3.78e-08
8630.6, -3.794e-08
8632.6, -3.882e-08
8634.6, -3.84e-08
8636.6, -3.998e-08
8638.6, -3.93e-08
8640.6, -3.919e-08
8642.6, -4.109e-08
8644.6, -3.757e-08
8646.6, -3.708e-08
8648.6, -4.043e-08
8650.6, -4.09e-08
8652.6, -3.862e-08
8654.6, -4.161e-08
8656.6, -3.85e-08
8658.6, -4.161e-08
8660.7, -4.037e-08
8662.7, -3.933e-08
8664.7, -3.965e-08
8666.7, -4.362e-08
8668.7, -4.061e-08
8670.7, -4.118e-08
8672.7, -4.022e-08
8674.7, -3.87e-08
8676.7, -3.581e-08
8678.7, -3.837e-08
8680.7, -3.901e-08
8682.7, -4.32e-08
8684.7, -4.163e-08
8686.7, -4.278e-08
8688.7, -4.142e-08
8690.7, -3.947e-08
8692.7, -3.862e-08
8694.7, -3.607e-08
8696.7, -3.465e-08
8698.7, -3.695e-08
8700.7, -3.938e-08
8702.7, -3.832e-08
8704.7, -3.705e-08
8706.7, -3.918e-08
8708.7, -3.829e-08
8710.7, -3.911e-08
8712.7, -3.704e-08
8714.7, -3.484e-08
8716.7, -3.753e-08
8718.7, -3.874e-08
8720.7, -3.928e-08
8722.7, -4.126e-08
8724.7, -4.014e-08
8726.7, -4.042e-08
8728.7, -3.885e-08
8730.7, -4.017e-08
8732.7, -4.027e-08
8734.7, -3.814e-08
8736.7, -4.078e-08
8738.7, -3.673e-08
8740.7, -3.645e-08
8742.7, -3.598e-08
8744.7, -3.937e-08
8746.7, -3.64e-08
8748.7, -4.014e-08
8750.7, -3.881e-08
8752.7, -3.894e-08
8754.7, -4.067e-08
8756.7, -4.12e-08
8758.7, -3.795e-08
8760.8, -3.689e-08
8762.8, -3.919e-08
8764.8, -3.628e-08
8766.8, -3.722e-08
8768.8, -3.491e-08
8770.8, -3.688e-08
8772.8, -3.685e-08
8774.8, -3.679e-08
8776.8, -3.606e-08
8778.8, -3.469e-08
8780.8, -3.615e-08
8782.8, -3.405e-08
8784.8, -3.99e-08
8786.8, -3.82e-08
8788.8, -3.469e-08
8790.8, -3.361e-08
8792.8, -3.643e-08
8794.8, -3.652e-08
8796.8, -3.845e-08
8798.8, -3.739e-08
8800.8, -3.953e-08
8802.8, -3.797e-08
8804.8, -3.839e-08
8806.8, -3.926e-08
8808.8, -4.039e-08
8810.8, -3.859e-08
8812.8, -3.816e-08
8814.8, -3.9e-08
8816.8, -3.691e-08
8818.8, -3.929e-08
8820.8, -3.878e-08
8822.8, -3.712e-08
8824.8, -3.751e-08
8826.8, -3.595e-08
8828.8, -3.848e-08
8830.8, -3.551e-08
8832.8, -3.93e-08
8834.8, -4.002e-08
8836.8, -3.972e-08
8838.8, -3.876e-08
8840.8, -3.604e-08
8842.8, -3.946e-08
8844.8, -3.579e-08
8846.8, -3.663e-08
8848.8, -3.934e-08
8850.8, -3.919e-08
8852.8, -3.836e-08
8854.8, -4.383e-08
8856.8, -3.733e-08
8858.8, -3.667e-08
8860.9, -3.937e-08
8862.9, -3.989e-08
8864.9, -3.916e-08
8866.9, -3.845e-08
8868.9, -3.559e-08
8870.9, -3.914e-08
8872.9, -4.126e-08
8874.9, -3.47e-08
8876.9, -3.561e-08
8878.9, -3.65e-08
8880.9, -3.433e-08
8882.9, -3.593e-08
8884.9, -3.678e-08
8886.9, -3.548e-08
8888.9, -3.72e-08
8890.9, -3.873e-08
8892.9, -3.933e-08
8894.9, -3.869e-08
8896.9, -3.734e-08
8898.9, -4.003e-08
8900.9, -3.82e-08
8902.9, -3.759e-08
8904.9, -3.678e-08
8906.9, -3.646e-08
8908.9, -3.85e-08
8910.9, -3.953e-08
8912.9, -3.541e-08
8914.9, -3.521e-08
8916.9, -3.494e-08
8918.9, -3.455e-08
8920.9, -3.63e-08
8922.9, -3.341e-08
8924.9, -3.421e-08
8926.9, -3.773e-08
8928.9, -3.423e-08
8930.9, -3.779e-08
8932.9, -3.481e-08
8934.9, -3.475e-08
8936.9, -3.536e-08
8938.9, -3.757e-08
8940.9, -3.973e-08
8942.9, -3.82e-08
8944.9, -3.593e-08
8946.9, -3.677e-08
8948.9, -3.968e-08
8950.9, -3.761e-08
8952.9, -4.076e-08
8954.9, -4.133e-08
8956.9, -3.843e-08
8958.9, -4.107e-08
8961.0, -4.082e-08
8963.0, -4.126e-08
8965.0, -3.609e-08
8967.0, -3.881e-08
8969.0, -3.653e-08
8971.0, -4.078e-08
8973.0, -3.855e-08
8975.0, -3.869e-08
8977.0, -3.474e-08
8979.0, -4.08e-08
8981.0, -4.189e-08
8983.0, -3.697e-08
8985.0, -3.865e-08
8987.0, -3.882e-08
8989.0, -4.31e-08
8991.0, -4.201e-08
8993.0, -3.818e-08
8995.0, -4.024e-08
8997.0, -4.095e-08
8999.0, -3.785e-08
9001.0, -3.986e-08
9003.0, -3.748e-08
9005.0, -3.793e-08
9007.0, -3.296e-08
9009.0, -3.625e-08
9011.0, -3.787e-08
9013.0, -3.734e-08
9015.0, -3.597e-08
9017.0, -3.611e-08
9019.0, -3.682e-08
9021.0, -3.724e-08
9023.0, -3.843e-08
9025.0, -3.867e-08
9027.0, -3.727e-08
9029.0, -4.017e-08
9031.0, -3.865e-08
9033.0, -4.021e-08
9035.0, -4.06e-08
9037.0, -3.823e-08
9039.0, -3.75e-08
9041.0, -3.722e-08
9043.0, -3.842e-08
9045.0, -3.844e-08
9047.0, -3.809e-08
9049.0, -3.744e-08
9051.0, -3.558e-08
9053.0, -3.811e-08
9055.0, -3.362e-08
9057.0, -3.953e-08
9059.0, -3.716e-08
9061.1, -4.02e-08
9063.1, -4.247e-08
9065.1, -4.305e-08
9067.1, -4.041e-08
9069.1, -3.736e-08
9071.1, -4.065e-08
9073.1, -3.64e-08
9075.1, -3.636e-08
9077.1, -3.856e-08
9079.1, -3.976e-08
9081.1, -3.853e-08
9083.1, -4.209e-08
9085.1, -3.798e-08
9087.1, -3.646e-08
9089.1, -3.725e-08
9091.1, -3.7e-08
9093.1, -3.634e-08
9095.1, -3.748e-08
9097.1, -3.577e-08
9099.1, -3.848e-08
9101.1, -3.748e-08
9103.1, -3.917e-08
9105.1, -4.107e-08
9107.1, -3.846e-08
9109.1, -3.618e-08
9111.1, -4.483e-08
9113.1, -4.343e-08
9115.1, -3.996e-08
9117.1, -3.891e-08
9119.1, -3.873e-08
9121.1, -3.804e-08
9123.1, -3.47e-08
9125.1, -3.497e-08
9127.1, -3.877e-08
9129.1, -3.419e-08
9131.1, -3.567e-08
9133.1, -3.923e-08
9135.1, -3.61e-08
9137.1, -3.705e-08
9139.1, -4.117e-08
9141.1, -4.265e-08
9143.1, -4.614e-08
9145.1, -3.929e-08
9147.1, -3.716e-08
9149.1, -3.843e-08
9151.1, -3.674e-08
9153.1, -3.894e-08
9155.1, -3.586e-08
9157.1, -3.699e-08
9159.1, -3.791e-08
9161.2, -3.87e-08
9163.2, -3.868e-08
9165.2, -3.675e-08
9167.2, -3.854e-08
9169.2, -4.026e-08
9171.2, -3.895e-08
9173.2, -4.029e-08
9175.2, -4.131e-08
9177.2, -4.125e-08
9179.2, -4.159e-08
9181.2, -4.491e-08
9183.2, -4.229e-08
9185.2, -4.42e-08
9187.2, -4.11e-08
9189.2, -3.955e-08
9191.2, -4.312e-08
9193.2, -3.904e-08
9195.2, -4.175e-08
9197.2, -4.149e-08
9199.2, -3.879e-08
9201.2, -3.72e-08
9203.2, -4.137e-08
9205.2, -4.218e-08
9207.2, -3.754e-08
9209.2, -3.9e-08
9211.2, -4.113e-08
9213.2, -4.426e-08
9215.2, -4.624e-08
9217.2, -4.085e-08
9219.2, -4.123e-08
9221.2, -3.998e-08
9223.2, -4.184e-08
9225.2, -3.861e-08
9227.2, -4.27e-08
9229.2, -4.329e-08
9231.2, -4.53e-08
9233.2, -4.339e-08
9235.2, -3.902e-08
9237.2, -4.058e-08
9239.2, -4.179e-08
9241.2, -4.088e-08
9243.2, -4.469e-08
9245.2, -4.108e-08
9247.2, -3.874e-08
9249.2, -4.114e-08
9251.2, -3.717e-08
9253.2, -4.161e-08
9255.2, -3.986e-08
9257.2, -3.999e-08
9259.2, -4.04e-08
9261.3, -4.181e-08
9263.3, -4.319e-08
9265.3, -3.966e-08
9267.3, -4.322e-08
9269.3, -4.461e-08
9271.3, -4.11e-08
9273.3, -4.397e-08
9275.3, -4.425e-08
9277.3, -4.214e-08
9279.3, -4.252e-08
9281.3, -4.303e-08
9283.3, -4.314e-08
9285.3, -4.259e-08
9287.3, -4.468e-08
9289.3, -3.929e-08
9291.3, -3.835e-08
9293.3, 2.244e-06
9295.3, 4.4776e-06
9297.3, 3.4632e-06
9299.3, 4.3553e-06
9301.3, 4.0407e-06
9303.3, 3.8591e-06
9305.3, 4.1407e-06
9307.3, 4.2426e-06
9309.3, 4.3107e-06
9311.3, 4.4762e-06
9313.3, 4.3082e-06
9315.3, 4.3976e-06
9317.3, 4.3707e-06
9319.3, 4.5489e-06
9321.3, 4.0981e-06
9323.3, 4.3973e-06
9325.3, 4.4359e-06
9327.3, 4.3333e-06
9329.3, 4.2863e-06
9331.3, 4.1092e-06
9333.3, 4.1595e-06
9335.3, 4.6601e-06
9337.3, 4.1957e-06
9339.3, 4.3695e-06
9341.3, 4.5486e-06
9343.3, 3.9913e-06
9345.3, 4.2846e-06
9347.3, 4.5307e-06
9349.3, 3.9992e-06
9351.3, 4.2028e-06
9353.3, 4.5223e-06
9355.3, 4.5341e-06
9357.3, 4.1904e-06
9359.3, 4.3587e-06
9361.4, 4.3411e-06
9363.4, 4.5357e-06
9365.4, 4.2911e-06
9367.4, 4.2888e-06
9369.4, 4.3291e-06
9371.4, 4.5205e-06
9373.4, 4.5153e-06
9375.4, 4.3384e-06
9377.4, 4.3043e-06
9379.4, 4.3423e-06
9381.4, 4.2923e-06
9383.4, 4.1224e-06
9385.4, 4.1372e-06
9387.4, 4.1192e-06
9389.4, 4.2149e-06
9391.4, 4.542e-06
9393.4, 4.2064e-06
9395.4, 4.3242e-06
9397.4, 4.1052e-06
9399.4, 4.6092e-06
9401.4, 4.6375e-06
9403.4, 4.136e-06
9405.4, 4.5606e-06
9407.4, 4.36e-06
9409.4, 4.5722e-06
9411.4, 4.3515e-06
9413.4, 4.4177e-06
9415.4, 4.1443e-06
9417.4, 4.4568e-06
9419.4, 4.4819e-06
9421.4, 4.1159e-06
9423.4, 4.5638e-06
9425.4, 4.4824e-06
9427.4, 4.5521e-06
9429.4, 4.4713e-06
9431.4, 4.5372e-06
9433.4, 4.2612e-06
9435.4, 4.706e-06
9437.4, 4.7343e-06
9439.4, 4.0773e-06
9441.4, 4.3753e-06
9443.4, 4.4979e-06
9445.4, 4.6459e-06
9447.4, 4.5815e-06
9449.4, 4.2669e-06
9451.4, 4.4117e-06
9453.4, 4.1815e-06
9455.4, 4.3131e-06
9457.4, 3.9695e-06
9459.4, 4.5464e-06
9461.5, 4.5734e-06
9463.5, 4.6045e-06
9465.5, 4.293e-06
9467.5, 4.6859e-06
9469.5, 4.6656e-06
9471.5, 4.1718e-06
9473.5, 4.5046e-06
9475.5, 4.7324e-06
9477.5, 4.5165e-06
9479.5, 4.7088e-06
9481.5, 4.6243e-06
9483.5, 4.5461e-06
9485.5, 4.0617e-06
9487.5, 4.1665e-06
9489.5, 4.582e-06
9491.5, 4.3102e-06
9493.5, 4.2221e-06
9495.5, 4.2264e-06
9497.5, 4.6351e-06
9499.5, 4.5217e-06
9501.5, 4.4541e-06
9503.5, 4.4231e-06
9505.5, 4.5778e-06
9507.5, 4.5034e-06
9509.5, 4.5091e-06
9511.5, 4.7396e-06
9513.5, 4.2688e-06
9515.5, 4.6016e-06
9517.5, 4.5039e-06
9519.5, 4.7996e-06
9521.5, 4.7952e-06
9523.5, 4.4493e-06
9525.5, 4.5213e-06
9527.5, 4.2333e-06
9529.5, 4.4437e-06
9531.5, 4.3365e-06
9533.5, 4.675e-06
9535.5, 4.5614e-06
9537.5, 4.4502e-06
9539.5, 4.479e-06
9541.5, 4.712e-06
9543.5, 4.4119e-06
9545.5, 4.4305e-06
9547.5, 4.6442e-06
9549.5, 4.6295e-06
9551.5, 4.5296e-06
9553.5, 4.5996e-06
9555.5, 4.6597e-06
9557.5, 4.5716e-06
9559.5, 4.6494e-06
9561.6, 4.5944e-06
9563.6, 4.391e-06
9565.6, 4.5069e-06
9567.6, 4.5631e-06
9569.6, 4.3325e-06
9571.6, 4.453e-06
9573.6, 4.4221e-06
9575.6, 4.6348e-06
9577.6, 4.5626e-06
9579.6, 4.3289e-06
9581.6, 4.5635e-06
9583.6, 4.529e-06
9585.6, 4.6573e-06
9587.6, 4.697e-06
9589.6, 4.4339e-06
9591.6, 4.5025e-06
9593.6, 4.5992e-06
9595.6, 4.4024e-06
9597.6, 4.5892e-06
9599.6, 4.5524e-06
9601.6, 4.6019e-06
9603.6, 4.2869e-06
9605.6, 4.504e-06
9607.6, 4.516e-06
9609.6, 4.5842e-06
9611.6, 4.3886e-06
9613.6, 4.2246e-06
9615.6, 4.2667e-06
9617.6, 4.588e-06
9619.6, 4.7703e-06
9621.6, 4.2019e-06
9623.6, 4.4542e-06
9625.6, 4.5525e-06
9627.6, 4.7871e-06
9629.6, 4.5993e-06
9631.6, 4.4452e-06
9633.6, 4.7216e-06
9635.6, 4.6685e-06
9637.6, 4.0406e-06
9639.6, 4.5914e-06
9641.6, 4.6662e-06
9643.6, 4.461e-06
9645.6, 4.2406e-06
9647.6, 3.9889e-06
9649.6, 4.6406e-06
9651.6, 4.3998e-06
9653.6, 4.7578e-06
9655.6, 4.7322e-06
9657.6, 4.6485e-06
9659.6, 4.6696e-06
9661.7, 4.2946e-06
9663.7, 4.6303e-06
9665.7, 4.4973e-06
9667.7, 4.5392e-06
9669.7, 4.6784e-06
9671.7, 4.821e-06
9673.7, 4.5574e-06
9675.7, 4.8098e-06
9677.7, 4.4256e-06
9679.7, 4.8326e-06
9681.7, 4.4578e-06
9683.7, 4.3759e-06
9685.7, 4.5441e-06
9687.7, 4.4695e-06
9689.7, 4.6131e-06
9691.7, 4.4746e-06
9693.7, 4.7119e-06
9695.7, 4.4506e-06
9697.7, 4.4769e-06
9699.7, 4.3846e-06
9701.7, 4.4289e-06
9703.7, 4.7008e-06
9705.7, 4.637e-06
9707.7, 4.4549e-06
9709.7, 4.5283e-06
9711.7, 4.8035e-06
9713.7, 4.8319e-06
9715.7, 4.707e-06
9717.7, 4.7112e-06
9719.7, 4.69e-06
9721.7, 4.5243e-06
9723.7, 4.6559e-06
9725.7, 4.6214e-06
9727.7, 4.4233e-06
9729.7, 4.1949e-06
9731.7, 4.4406e-06
9733.7, 4.3143e-06
9735.7, 4.6809e-06
9737.7, 4.3828e-06
9739.7, 4.5308e-06
9741.7, 4.6021e-06
9743.7, 4.5926e-06
9745.7, 4.603e-06
9747.7, 4.5854e-06
9749.7, 4.4745e-06
9751.7, 4.3905e-06
9753.7, 4.7313e-06
9755.7, 4.0827e-06
9757.7, 4.1995e-06
9759.7, 4.6918e-06
9761.8, 4.6514e-06
9763.8, 4.4323e-06
9765.8, 4.6729e-06
9767.8, 4.6188e-06
9769.8, 4.6172e-06
9771.8, 4.7446e-06
9773.8, 4.6235e-06
9775.8, 4.2078e-06
9777.8, 4.7033e-06
9779.8, 4.5576e-06
9781.8, 4.625e-06
9783.8, 4.6031e-06
9785.8, 4.5562e-06
9787.8, 4.6006e-06
9789.8, 4.6503e-06
9791.8, 4.1974e-06
9793.8, 4.4171e-06
9795.8, 4.723e-06
9797.8, 4.8441e-06
9799.8, 4.5796e-06
9801.8, 4.5371e-06
9803.8, 4.3113e-06
9805.8, 4.5638e-06
9807.8, 4.5959e-06
9809.8, 4.3947e-06
9811.8, 4.5933e-06
9813.8, 4.5798e-06
9815.8, 4.3921e-06
9817.8, 4.6797e-06
9819.8, 4.4699e-06
9821.8, 4.3113e-06
9823.8, 4.6259e-06
9825.8, 4.7647e-06
9827.8, 4.4848e-06
9829.8, 4.5098e-06
9831.8, 4.7947e-06
9833.8, 4.2061e-06
9835.8, 4.5432e-06
9837.8, 4.595e-06
9839.8, 4.4695e-06
9841.8, 4.4321e-06
9843.8, 4.7934e-06
9845.8, 4.5597e-06
9847.8, 4.5085e-06
9849.8, 4.5467e-06
9851.8, 4.6569e-06
9853.8, 4.7036e-06
9855.8, 4.5122e-06
9857.8, 4.679e-06
9859.8, 4.3315e-06
9861.9, 4.1712e-06
9863.9, 4.4337e-06
9865.9, 4.788e-06
9867.9, 4.314e-06
9869.9, 4.5565e-06
9871.9, 4.7252e-06
9873.9, 4.2803e-06
9875.9, 4.3196e-06
9877.9, 4.7831e-06
9879.9, 4.6094e-06
9881.9, 4.748e-06
9883.9, 4.6197e-06
9885.9, 4.6329e-06
9887.9, 4.4604e-06
9889.9, 4.7012e-06
9891.9, 4.5082e-06
9893.9, 4.6617e-06
9895.9, 4.5737e-06
9897.9, 4.4794e-06
9899.9, 4.6818e-06
9901.9, 4.2272e-06
9903.9, 4.1836e-06
9905.9, 4.3161e-06
9907.9, 4.6858e-06
9909.9, 4.7897e-06
9911.9, 4.538e-06
9913.9, 4.2682e-06
9915.9, 4.5836e-06
9917.9, 4.5797e-06
9919.9, 4.3186e-06
9921.9, 4.5136e-06
9923.9, 4.4833e-06
9925.9, 4.3924e-06
9927.9, 4.2883e-06
9929.9, 4.3072e-06
9931.9, 4.1743e-06
9933.9, 4.4009e-06
9935.9, 4.4604e-06
9937.9, 4.5503e-06
9939.9, 4.2972e-06
9941.9, 4.3587e-06
9943.9, 4.6023e-06
9945.9, 4.5122e-06
9947.9, 4.4161e-06
9949.9, 4.6801e-06
9951.9, 4.7501e-06
9953.9, 4.3403e-06
9955.9, 4.5953e-06
9957.9, 4.5406e-06
9959.9, 4.7796e-06
9962.0, 4.4959e-06
9964.0, 4.4373e-06
9966.0, 4.4391e-06
9968.0, 4.5389e-06
9970.0, 4.5204e-06
9972.0, 4.8223e-06
9974.0, 4.4399e-06
9976.0, 4.3721e-06
9978.0, 4.4472e-06
9980.0, 4.6628e-06
9982.0, 4.4897e-06
9984.0, 4.3978e-06
9986.0, 4.6742e-06
9988.0, 4.751e-06
9990.0, 4.5833e-06
9992.0, 4.1774e-06
9994.0, 4.3307e-06
9996.0, 4.4823e-06
9998.0, 4.6695e-06
10000.0, 4.8011e-06
10002.0, 4.4532e-06
10004.0, 4.5062e-06
10006.0, 4.0142e-06
10008.0, 4.5539e-06
10010.0, 4.4434e-06
10012.0, 4.6395e-06
10014.0, 4.5882e-06
10016.0, 4.2901e-06
10018.0, 4.4558e-06
10020.0, 4.5021e-06
10022.0, 4.8034e-06
10024.0, 4.412e-06
10026.0, 4.7183e-06
10028.0, 4.7085e-06
10030.0, 4.5883e-06
10032.0, 4.3339e-06
10034.0, 4.486e-06
10036.0, 4.658e-06
10038.0, 4.4442e-06
10040.0, 4.5307e-06
10042.0, 4.6199e-06
10044.0, 4.7357e-06
10046.0, 4.475e-06
10048.0, 4.2381e-06
10050.0, 4.5851e-06
10052.0, 4.568e-06
10054.0, 4.5349e-06
10056.0, 4.51e-06
10058.0, 4.3892e-06
10060.0, 4.3241e-06
10062.0, 4.7178e-06
10064.0, 4.4794e-06
10066.0, 4.0958e-06
10068.0, 4.7416e-06
10070.0, 4.7012e-06
10072.0, 4.4344e-06
10074.0, 4.3932e-06
10076.0, 4.5511e-06
10078.0, 4.6278e-06
10080.0, 4.4121e-06
10082.0, 4.6334e-06
10084.0, 4.6925e-06
10086.0, 4.3055e-06
10088.0, 4.5641e-06
10090.0, 4.2611e-06
10092.0, 4.6526e-06
10094.0, 4.7312e-06
10096.0, 4.3134e-06
10098.0, 4.7126e-06
10100.0, 4.6077e-06
10102.0, 4.5879e-06
10104.0, 4.7236e-06
10106.0, 4.5469e-06
10108.0, 4.6409e-06
10110.0, 4.5453e-06
10112.0, 4.3034e-06
10114.0, 4.4144e-06
10116.0, 4.3755e-06
10118.0, 4.5467e-06
10120.0, 4.6101e-06
10122.0, 4.2813e-06
10124.0, 4.4755e-06
10126.0, 4.3509e-06
10128.0, 4.5462e-06
10130.0, 4.4196e-06
10132.0, 4.5143e-06
10134.0, 3.9466e-06
10136.0, 4.5076e-06
10138.0, 4.4722e-06
10140.0, 4.4687e-06
10142.0, 4.1972e-06
10144.0, 4.4487e-06
10146.0, 4.614e-06
10148.0, 4.5407e-06
10150.0, 4.4674e-06
10152.0, 4.2438e-06
10154.0, 4.5804e-06
10156.0, 4.5345e-06
10158.0, 4.5184e-06
10160.0, 4.4247e-06
10162.0, 4.6314e-06
10164.0, 4.1843e-06
10166.0, 4.6878e-06
10168.0, 4.6186e-06
10170.0, 4.7074e-06
10172.0, 4.3633e-06
10174.0, 4.6514e-06
10176.0, 4.3963e-06
10178.0, 4.8241e-06
10180.0, 4.2981e-06
10182.0, 4.2889e-06
10184.0, 4.3554e-06
10186.0, 4.7254e-06
10188.0, 4.5495e-06
10190.0, 4.5415e-06
10192.0, 4.4481e-06
10194.0, 4.5403e-06
10196.0, 4.6844e-06
10198.0, 4.3471e-06
10200.0, 4.4464e-06
10202.0, 4.5291e-06
10204.0, 4.2902e-06
10206.0, 4.3271e-06
10208.0, 4.5785e-06
10210.0, 4.6328e-06
10212.0, 4.5128e-06
10214.0, 4.4558e-06
10216.0, 4.2354e-06
10218.0, 4.09e-06
10220.0, 4.5813e-06
10222.0, 4.4968e-06
10224.0, 4.2632e-06
10226.0, 4.4404e-06
10228.0, 4.4673e-06
10230.0, 4.5148e-06
10232.0, 4.6209e-06
10234.0, 4.6327e-06
10236.0, 4.3861e-06
10238.0, 4.3633e-06
10240.0, 4.5551e-06
10242.0, 4.5392e-06
10244.0, 4.3348e-06
10246.0, 4.5704e-06
10248.0, 4.6674e-06
10250.0, 4.419e-06
10252.0, 4.4448e-06
10254.0, 4.3132e-06
10256.0, 4.6593e-06
10258.0, 4.5361e-06
10260.0, 4.3154e-06
10262.0, 4.5175e-06
10264.0, 4.5937e-06
10266.0, 4.6398e-06
10268.0, 4.6508e-06
10270.0, 4.5097e-06
10272.0, 4.3178e-06
10274.0, 4.4364e-06
10276.0, 4.5685e-06
10278.0, 4.4067e-06
10280.0, 4.3005e-06
10282.0, 4.4577e-06
10284.0, 4.4719e-06
10286.0, 4.7524e-06
10288.0, 4.4565e-06
10290.0, 4.327e-06
10292.0, 4.5729e-06
10294.0, 2.1824e-06
10296.0, -3.492e-08
10298.0, -3.142e-08
10300.0, -3.308e-08
10302.0, -3.437e-08
10304.0, -3.41e-08
10306.0, -3.534e-08
10308.0, -3.667e-08
10310.0, -3.476e-08
10312.0, -3.434e-08
10314.0, -3.698e-08
10316.0, -3.422e-08
10318.0, -3.49e-08
10320.0, -3.546e-08
10322.0, -4.03e-08
10324.0, -3.658e-08
10326.0, -3.778e-08
10328.0, -3.339e-08
10330.0, -3.416e-08
10332.0, -3.707e-08
10334.0, -3.635e-08
10336.0, -3.539e-08
10338.0, -3.668e-08
10340.0, -3.616e-08
10342.0, -4.125e-08
10344.0, -3.858e-08
10346.0, -3.612e-08
10348.0, -3.569e-08
10350.0, -3.882e-08
10352.0, -4.374e-08
10354.0, -3.775e-08
10356.0, -3.681e-08
10358.0, -3.81e-08
10360.0, -3.972e-08
10362.0, -3.675e-08
10364.0, -3.976e-08
10366.0, -3.301e-08
10368.0, -3.602e-08
10370.0, -3.504e-08
10372.0, -3.829e-08
10374.0, -3.772e-08
10376.0, -3.592e-08
10378.0, -3.192e-08
10380.0, -3.408e-08
10382.0, -4.32e-08
10384.0, -3.703e-08
10386.0, -3.426e-08
10388.0, -3.822e-08
10390.0, -4.041e-08
10392.0, -3.714e-08
10394.0, -3.479e-08
10396.0, -3.564e-08
10398.0, -3.872e-08
10400.0, -4.165e-08
10402.0, -3.824e-08
10404.0, -3.851e-08
10406.0, -3.908e-08
10408.0, -3.751e-08
10410.0, -3.598e-08
10412.0, -3.804e-08
10414.0, -3.425e-08
10416.0, -3.935e-08
10418.0, -3.481e-08
10420.0, -3.625e-08
10422.0, -3.79e-08
10424.0, -3.402e-08
10426.0, -3.796e-08
10428.0, -3.231e-08
10430.0, -3.608e-08
10432.0, -3.444e-08
10434.0, -4e-08
10436.0, -3.837e-08
10438.0, -3.819e-08
10440.0, -3.652e-08
10442.0, -4.053e-08
10444.0, -3.611e-08
10446.0, -3.924e-08
10448.0, -3.584e-08
10450.0, -3.521e-08
10452.0, -3.814e-08
10454.0, -3.745e-08
10456.0, -3.907e-08
10458.0, -3.679e-08
10460.0, -3.704e-08
10462.0, -4.197e-08
10464.0, -4.379e-08
10466.0, -3.791e-08
10468.0, -3.714e-08
10470.0, -3.679e-08
10472.0, -3.666e-08
10474.0, -3.63e-08
10476.0, -3.543e-08
10478.0, -3.446e-08
10480.0, -3.377e-08
10482.0, -3.534e-08
10484.0, -3.705e-08
10486.0, -3.701e-08
10488.0, -3.779e-08
10490.0, -3.697e-08
10492.0, -3.621e-08
10494.0, -3.691e-08
10496.0, -3.465e-08
10498.0, -3.658e-08
10500.0, -3.973e-08
10502.0, -3.618e-08
10504.0, -3.696e-08
10506.0, -3.305e-08
10508.0, -3.655e-08
10510.0, -3.555e-08
10513.0, -3.537e-08
10515.0, -3.702e-08
10517.0, -3.85e-08
10519.0, -3.899e-08
10521.0, -3.796e-08
10523.0, -3.643e-08
10525.0, -3.476e-08
10527.0, -3.606e-08
10529.0, -3.485e-08
10531.0, -3.778e-08
10533.0, -3.449e-08
10535.0, -3.594e-08
10537.0, -3.424e-08
10539.0, -3.256e-08
10541.0, -4.081e-08
10543.0, -3.414e-08
10545.0, -3.839e-08
10547.0, -3.346e-08
10549.0, -3.529e-08
10551.0, -3.248e-08
10553.0, -3.983e-08
10555.0, -3.423e-08
10557.0, -3.952e-08
10559.0, -3.314e-08
10561.0, -3.883e-08
10563.0, -3.922e-08
10565.0, -3.376e-08
10567.0, -3.851e-08
10569.0, -3.612e-08
10571.0, -3.64e-08
10573.0, -3.755e-08
10575.0, -3.409e-08
10577.0, -3.656e-08
10579.0, -3.719e-08
10581.0, -3.598e-08
10583.0, -3.812e-08
10585.0, -3.996e-08
10587.0, -3.923e-08
10589.0, -3.947e-08
10591.0, -3.982e-08
10593.0, -4.116e-08
10595.0, -4.451e-08
10597.0, -4.114e-08
10599.0, -3.817e-08
10601.0, -4.261e-08
10603.0, -4.005e-08
10605.0, -3.889e-08
10607.0, -3.679e-08
10609.0, -3.897e-08
10611.0, -3.946e-08
10613.0, -3.901e-08
10615.0, -3.811e-08
10617.0, -3.777e-08
10619.0, -3.721e-08
10621.0, -3.683e-08
10623.0, -4.065e-08
10625.0, -4.328e-08
10627.0, -4.507e-08
10629.0, -4.355e-08
10631.0, -4.317e-08
10633.0, -4.408e-08
10635.0, -4.295e-08
10637.0, -4.141e-08
10639.0, -4.213e-08
10641.0, -4.094e-08
10643.0, -3.769e-08
10645.0, -4.277e-08
10647.0, -4.099e-08
10649.0, -4.031e-08
10651.0, -4.084e-08
10653.0, -4.499e-08
10655.0, -4.484e-08
10657.0, -4.12e-08
10659.0, -4.267e-08
10661.0, -4.336e-08
10663.0, -4.202e-08
10665.0, -4.187e-08
10667.0, -4.42e-08
10669.0, -3.984e-08
10671.0, -4.266e-08
10673.0, -3.967e-08
10675.0, -4.279e-08
10677.0, -4.035e-08
10679.0, -4.128e-08
10681.0, -3.895e-08
10683.0, -4.039e-08
10685.0, -3.986e-08
10687.0, -4.048e-08
10689.0, -4.383e-08
10691.0, -4.649e-08
10693.0, -4.248e-08
10695.0, -3.849e-08
10697.0, -3.86e-08
10699.0, -4.036e-08
10701.0, -4.048e-08
10703.0, -4.398e-08
10705.0, -4.266e-08
10707.0, -3.874e-08
10709.0, -3.917e-08
10711.0, -4.139e-08
10713.0, -3.673e-08
10715.0, -4.021e-08
10717.0, -3.814e-08
10719.0, -3.675e-08
10721.0, -3.814e-08
10723.0, -4.053e-08
10725.0, -4.039e-08
10727.0, -4.115e-08
10729.0, -4.131e-08
10731.0, -3.845e-08
10733.0, -4.208e-08
10735.0, -4.171e-08
10737.0, -4.122e-08
10739.0, -3.769e-08
10741.0, -3.748e-08
10743.0, -4.039e-08
10745.0, -3.839e-08
10747.0, -3.88e-08
10749.0, -3.891e-08
10751.0, -3.914e-08
10753.0, -4.078e-08
10755.0, -4.12e-08
10757.0, -4.049e-08
10759.0, -3.786e-08
10761.0, -3.705e-08
10763.0, -4.099e-08
10765.0, -3.623e-08
10767.0, -3.289e-08
10769.0, -3.54e-08
10771.0, -3.967e-08
10773.0, -3.773e-08
10775.0, -3.54e-08
10777.0, -3.527e-08
10779.0, -3.38e-08
10781.0, -3.427e-08
10783.0, -3.813e-08
10785.0, -3.629e-08
10787.0, -3.66e-08
10789.0, -3.747e-08
10791.0, -4.021e-08
10793.0, -3.549e-08
10795.0, -3.444e-08
10797.0, -3.448e-08
10799.0, -3.552e-08
10801.0, -3.99e-08
10803.0, -4.101e-08
10805.0, -4.088e-08
10807.0, -3.488e-08
10809.0, -4.045e-08
10811.0, -3.89e-08
10813.0, -3.721e-08
10815.0, -3.549e-08
10817.0, -3.547e-08
10819.0, -3.434e-08
10821.0, -3.375e-08
10823.0, -3.131e-08
10825.0, -3.844e-08
10827.0, -3.654e-08
10829.0, -3.832e-08
10831.0, -3.674e-08
10833.0, -3.845e-08
10835.0, -3.585e-08
10837.0, -3.643e-08
10839.0, -3.663e-08
10841.0, -3.483e-08
10843.0, -4.047e-08
10845.0, -3.719e-08
10847.0, -3.835e-08
10849.0, -3.732e-08
10851.0, -3.698e-08
10853.0, -3.488e-08
10855.0, -3.863e-08
10857.0, -3.767e-08
10859.0, -3.759e-08
10861.0, -3.748e-08
10863.0, -3.575e-08
10865.0, -3.563e-08
10867.0, -3.564e-08
10869.0, -3.754e-08
10871.0, -3.744e-08
10873.0, -3.85e-08
10875.0, -3.718e-08
10877.0, -3.804e-08
10879.0, -3.793e-08
10881.0, -3.578e-08
10883.0, -3.694e-08
10885.0, -4.17e-08
10887.0, -3.781e-08
10889.0, -3.569e-08
10891.0, -3.403e-08
10893.0, -3.573e-08
10895.0, -3.532e-08
10897.0, -3.425e-08
10899.0, -3.836e-08
10901.0, -4.003e-08
10903.0, -3.374e-08
10905.0, -3.29e-08
10907.0, -3.44e-08
10909.0, -3.546e-08
10911.0, -3.451e-08
10913.0, -3.16e-08
10915.0, -3.714e-08
10917.0, -3.289e-08
10919.0, -3.401e-08
10921.0, -3.802e-08
10923.0, -3.853e-08
10925.0, -3.866e-08
10927.0, -3.604e-08
10929.0, -3.883e-08
10931.0, -4.033e-08
10933.0, -3.758e-08
10935.0, -3.726e-08
10937.0, -3.611e-08
10939.0, -3.666e-08
10941.0, -3.816e-08
10943.0, -3.221e-08
10945.0, -3.554e-08
10947.0, -3.642e-08
10949.0, -3.863e-08
10951.0, -3.626e-08
10953.0, -3.554e-08
10955.0, -3.904e-08
10957.0, -3.617e-08
10959.0, -3.649e-08
10961.0, -3.802e-08
10963.0, -3.698e-08
10965.0, -3.575e-08
10967.0, -3.787e-08
10969.0, -3.726e-08
10971.0, -3.9e-08
10973.0, -4.122e-08
10975.0, -3.705e-08
10977.0, -3.722e-08
10979.0, -3.835e-08
10981.0, -3.897e-08
10983.0, -4.138e-08
10985.0, -3.679e-08
10987.0, -3.441e-08
10989.0, -3.275e-08
10991.0, -3.409e-08
10993.0, -3.615e-08
10995.0, -3.096e-08
10997.0, -4.025e-08
10999.0, -3.694e-08
11001.0, -3.764e-08
11003.0, -3.527e-08
11005.0, -3.812e-08
11007.0, -3.884e-08
11009.0, -3.771e-08
